timestamps,TP9,AF7,AF8,TP10,Right AUX
1676160115.410,-140.137,47.852,37.109,-160.156,0.000
1676160115.414,-123.535,47.363,36.621,-91.309,0.000
1676160115.418,-179.199,42.480,25.879,-171.387,0.000
1676160115.421,-245.605,47.363,32.227,-299.316,0.000
1676160115.425,-235.840,56.641,40.527,-272.949,0.000
1676160115.429,-181.152,60.059,40.039,-160.156,0.000
1676160115.433,-185.059,57.129,30.273,-179.688,0.000
1676160115.437,-257.812,48.340,12.207,-296.875,0.000
1676160115.441,-233.887,60.547,36.133,-252.441,0.000
1676160115.445,-161.621,64.941,51.758,-121.582,0.000
1676160115.449,-183.105,51.270,12.207,-153.809,0.000
1676160115.453,-194.336,61.523,18.555,-217.285,0.000
1676160115.457,-186.035,72.266,36.133,-226.074,0.000
1676160115.461,-164.062,63.965,18.066,-163.086,0.000
1676160115.464,-144.043,52.734,-6.348,-115.723,0.000
1676160115.468,-125.488,66.895,15.625,-140.625,0.000
1676160115.472,-138.672,81.055,27.344,-193.359,0.000
1676160115.476,-127.930,67.871,6.836,-144.043,0.000
1676160115.480,-83.008,57.129,-10.742,-34.668,0.000
1676160115.484,-75.684,66.406,-8.789,-58.105,0.000
1676160115.488,-59.082,88.379,25.391,-93.262,0.000
1676160115.492,-64.453,73.242,1.953,-83.496,0.000
1676160115.496,-51.758,46.387,-27.832,-35.156,0.000
1676160115.499,20.996,59.082,-5.859,35.156,0.000
1676160115.504,-0.488,57.129,-10.254,-22.949,0.000
1676160115.507,-38.574,39.062,-20.020,-61.035,0.000
1676160115.511,25.391,30.762,-27.832,41.504,0.000
1676160115.515,110.840,33.691,-12.207,134.766,0.000
1676160115.519,93.750,40.039,2.441,83.008,0.000
1676160115.523,58.594,39.062,-15.137,20.020,0.000
1676160115.527,73.242,16.113,-43.945,81.055,0.000
1676160115.531,146.484,13.184,-29.297,210.449,0.000
1676160115.535,184.570,31.250,-4.883,216.797,0.000
1676160115.539,82.031,11.230,-36.133,56.641,0.000
1676160115.542,72.754,-7.812,-54.199,78.613,0.000
1676160115.546,166.016,-5.859,-45.898,236.816,0.000
1676160115.550,199.707,7.812,-34.180,248.047,0.000
1676160115.554,133.789,10.742,-43.457,116.211,0.000
1676160115.558,124.023,11.230,-43.457,104.004,0.000
1676160115.562,214.844,17.578,-28.320,258.301,0.000
1676160115.566,255.859,21.973,-36.133,310.547,0.000
1676160115.570,210.938,32.227,-30.762,200.684,0.000
1676160115.574,153.320,27.832,-38.086,118.164,0.000
1676160115.578,231.445,36.621,-29.297,258.789,0.000
1676160115.582,267.578,27.832,-40.527,341.309,0.000
1676160115.585,178.223,11.719,-74.707,191.895,0.000
1676160115.589,163.574,34.180,-46.387,126.465,0.000
1676160115.593,187.500,29.785,-45.410,208.008,0.000
1676160115.597,209.473,17.090,-72.754,286.133,0.000
1676160115.601,210.938,28.320,-63.965,249.023,0.000
1676160115.605,173.828,42.969,-35.645,151.855,0.000
1676160115.609,161.133,37.598,-42.480,147.461,0.000
1676160115.613,200.684,21.973,-65.430,237.305,0.000
1676160115.617,230.469,32.715,-50.293,255.859,0.000
1676160115.621,194.824,51.758,-23.438,153.809,0.000
1676160115.625,160.156,44.434,-24.902,125.488,0.000
1676160115.628,147.949,15.625,-67.383,178.711,0.000
1676160115.632,185.059,29.297,-58.105,223.145,0.000
1676160115.636,184.082,61.035,-25.391,169.922,0.000
1676160115.640,114.258,51.270,-41.016,72.266,0.000
1676160115.644,119.141,38.086,-64.941,125.977,0.000
1676160115.648,193.359,47.363,-53.223,229.492,0.000
1676160115.652,180.176,55.176,-39.551,175.293,0.000
1676160115.656,110.840,58.105,-40.527,68.848,0.000
1676160115.660,110.840,51.758,-50.781,106.445,0.000
1676160115.664,160.645,43.945,-53.223,208.984,0.000
1676160115.667,194.336,64.941,-17.090,229.492,0.000
1676160115.671,112.793,58.594,-30.762,99.121,0.000
1676160115.675,36.621,22.461,-81.543,38.086,0.000
1676160115.679,117.188,31.250,-64.941,161.621,0.000
1676160115.683,152.832,50.293,-48.828,189.941,0.000
1676160115.687,85.938,50.293,-52.734,77.148,0.000
1676160115.691,44.434,47.363,-57.129,37.598,0.000
1676160115.695,101.562,51.758,-47.852,150.391,0.000
1676160115.699,134.277,49.316,-43.945,190.430,0.000
1676160115.703,88.867,49.316,-45.898,89.844,0.000
1676160115.707,63.965,53.711,-27.344,38.086,0.000
1676160115.710,96.191,53.711,-15.625,128.906,0.000
1676160115.714,135.254,55.664,-12.207,211.914,0.000
1676160115.718,68.848,46.387,-39.062,99.121,0.000
1676160115.722,25.879,53.711,-36.133,1.465,0.000
1676160115.726,79.102,58.105,-12.207,71.777,0.000
1676160115.730,122.070,53.711,-16.602,144.531,0.000
1676160115.734,88.379,53.223,-28.809,89.355,0.000
1676160115.738,45.898,56.152,-18.066,8.301,0.000
1676160115.742,75.684,63.477,-1.465,43.457,0.000
1676160115.746,104.004,56.641,-18.555,121.094,0.000
1676160115.749,112.305,56.152,-15.137,139.160,0.000
1676160115.753,72.754,62.012,-3.906,55.176,0.000
1676160115.757,75.195,73.730,14.160,64.453,0.000
1676160115.761,96.191,62.500,-0.488,144.531,0.000
1676160115.765,62.988,33.691,-42.969,114.258,0.000
1676160115.769,59.570,56.152,-17.090,59.082,0.000
1676160115.773,30.273,65.430,-11.230,1.465,0.000
1676160115.777,27.832,43.457,-25.879,47.363,0.000
1676160115.781,69.336,44.922,-17.578,131.836,0.000
1676160115.785,69.336,64.453,-8.301,87.891,0.000
1676160115.789,1.953,71.777,0.000,-21.973,0.000
1676160115.792,-52.246,48.828,-16.602,-36.133,0.000
1676160115.796,-7.324,56.152,-8.789,56.152,0.000
1676160115.800,9.277,77.148,25.391,52.734,0.000
1676160115.804,-74.219,71.777,46.875,-93.750,0.000
1676160115.808,-156.250,51.270,30.762,-184.570,0.000
1676160115.812,-163.574,31.738,3.906,-132.812,0.000
1676160115.816,-123.535,42.480,44.922,-77.637,0.000
1676160115.820,-177.246,48.828,77.148,-182.129,0.000
1676160115.824,-306.152,26.367,22.461,-338.379,0.000
1676160115.828,-280.273,16.602,9.766,-266.113,0.000
1676160115.832,-199.707,12.207,28.320,-156.250,0.000
1676160115.835,-236.328,23.926,19.531,-232.910,0.000
1676160115.839,-295.898,32.227,17.090,-345.215,0.000
1676160115.843,-245.117,35.645,29.297,-265.625,0.000
1676160115.847,-174.805,37.109,20.020,-141.113,0.000
1676160115.851,-166.992,44.434,21.973,-163.574,0.000
1676160115.855,-240.723,39.062,13.184,-299.316,0.000
1676160115.859,-254.883,29.785,-15.625,-300.781,0.000
1676160115.863,-128.906,45.898,17.090,-94.238,0.000
1676160115.867,-117.188,30.762,18.555,-77.637,0.000
1676160115.871,-196.289,19.043,-11.719,-240.723,0.000
1676160115.874,-179.199,34.668,-0.488,-230.957,0.000
1676160115.879,-119.141,23.438,-14.160,-109.375,0.000
1676160115.882,-79.590,12.695,-28.320,-58.594,0.000
1676160115.886,-95.215,22.461,-21.484,-129.883,0.000
1676160115.890,-101.562,31.738,-7.324,-158.691,0.000
1676160115.894,-48.828,20.508,-15.625,-57.129,0.000
1676160115.898,16.113,14.160,-23.926,36.133,0.000
1676160115.902,-12.695,15.625,-35.645,-19.043,0.000
1676160115.906,-40.039,28.320,-26.367,-95.215,0.000
1676160115.910,20.020,28.809,-14.160,4.883,0.000
1676160115.914,32.715,-4.883,-64.941,72.754,0.000
1676160115.917,41.992,-1.953,-67.383,39.551,0.000
1676160115.921,35.156,20.020,-29.785,-3.418,0.000
1676160115.925,27.832,6.836,-46.875,11.719,0.000
1676160115.929,75.195,-10.254,-74.219,104.980,0.000
1676160115.933,133.789,13.184,-53.711,158.691,0.000
1676160115.937,104.980,27.832,-38.574,78.613,0.000
1676160115.941,59.570,15.137,-55.176,29.297,0.000
1676160115.945,110.840,9.277,-61.035,139.648,0.000
1676160115.949,163.086,22.461,-54.199,211.426,0.000
1676160115.953,167.480,44.922,-23.926,175.293,0.000
1676160115.957,108.887,31.250,-39.062,81.543,0.000
1676160115.960,72.266,-0.977,-91.797,71.289,0.000
1676160115.964,154.785,11.230,-62.012,186.523,0.000
1676160115.968,161.621,21.973,-50.781,149.902,0.000
1676160115.972,98.633,20.020,-65.918,41.992,0.000
1676160115.976,105.469,14.648,-73.730,80.566,0.000
1676160115.980,174.805,14.648,-71.289,199.219,0.000
1676160115.984,191.406,23.926,-51.758,206.543,0.000
1676160115.988,140.137,29.297,-46.875,111.328,0.000
1676160115.992,128.418,20.996,-55.664,108.398,0.000
1676160115.996,188.477,20.020,-51.758,213.379,0.000
1676160115.999,214.844,31.738,-41.992,254.883,0.000
1676160116.003,118.164,19.531,-67.383,114.746,0.000
1676160116.007,89.844,17.578,-71.289,63.477,0.000
1676160116.011,171.875,31.738,-46.875,189.941,0.000
1676160116.015,204.590,33.691,-43.457,242.188,0.000
1676160116.019,156.738,33.691,-57.129,154.297,0.000
1676160116.023,125.488,35.645,-57.617,91.309,0.000
1676160116.027,148.438,28.809,-55.664,159.668,0.000
1676160116.031,188.477,28.320,-53.711,243.164,0.000
1676160116.035,170.410,32.715,-55.176,202.148,0.000
1676160116.039,125.000,35.645,-48.828,121.094,0.000
1676160116.042,154.297,41.016,-28.320,179.199,0.000
1676160116.046,172.363,25.391,-52.246,247.559,0.000
1676160116.050,131.348,13.184,-81.055,190.918,0.000
1676160116.054,107.910,31.250,-48.828,113.281,0.000
1676160116.058,88.379,24.414,-47.363,85.449,0.000
1676160116.062,113.770,8.789,-68.359,162.598,0.000
1676160116.066,158.203,14.160,-65.430,208.984,0.000
1676160116.070,141.113,30.273,-44.434,140.137,0.000
1676160116.074,91.797,29.785,-44.922,64.453,0.000
1676160116.078,109.863,13.672,-68.848,126.953,0.000
1676160116.082,167.969,15.137,-64.941,233.887,0.000
1676160116.085,173.828,40.039,-27.832,196.289,0.000
1676160116.089,114.258,44.434,-14.160,103.027,0.000
1676160116.093,65.918,8.301,-60.059,95.215,0.000
1676160116.097,128.906,10.254,-69.824,191.406,0.000
1676160116.101,162.598,33.691,-37.598,203.613,0.000
1676160116.105,69.824,28.320,-38.086,50.293,0.000
1676160116.109,24.902,15.137,-60.547,16.602,0.000
1676160116.113,87.402,15.137,-52.246,144.531,0.000
1676160116.117,124.023,30.273,-26.855,176.758,0.000
1676160116.121,51.758,33.691,-30.273,38.086,0.000
1676160116.124,15.625,28.320,-37.109,-19.531,0.000
1676160116.128,75.195,24.902,-40.039,100.098,0.000
1676160116.132,145.508,39.062,-13.672,201.660,0.000
1676160116.136,81.055,33.203,-22.949,75.195,0.000
1676160116.140,-35.156,8.301,-65.918,-78.613,0.000
1676160116.144,18.555,7.812,-50.781,37.109,0.000
1676160116.148,98.633,19.043,-38.086,156.250,0.000
1676160116.152,74.707,32.227,-36.133,83.496,0.000
1676160116.156,17.090,38.086,-23.926,-20.020,0.000
1676160116.160,27.832,29.785,-29.785,34.180,0.000
1676160116.164,56.152,12.695,-49.805,118.652,0.000
1676160116.168,44.922,14.648,-42.969,90.332,0.000
1676160116.171,6.836,28.809,-26.367,-12.695,0.000
1676160116.175,16.113,37.109,-18.555,4.883,0.000
1676160116.179,91.797,40.527,-13.184,135.254,0.000
1676160116.183,75.684,27.832,-29.297,117.676,0.000
1676160116.187,0.000,22.949,-43.457,-7.324,0.000
1676160116.191,27.344,48.828,-13.672,13.184,0.000
1676160116.195,72.266,41.504,-14.648,110.840,0.000
1676160116.199,55.664,19.043,-49.316,99.121,0.000
1676160116.203,38.086,42.480,-30.762,26.855,0.000
1676160116.207,3.418,55.664,-8.301,-36.133,0.000
1676160116.211,-9.766,41.504,-24.902,-0.488,0.000
1676160116.214,11.230,34.180,-27.832,51.270,0.000
1676160116.218,5.859,57.617,14.648,4.883,0.000
1676160116.222,-68.848,68.359,34.180,-104.492,0.000
1676160116.226,-113.770,57.129,34.180,-112.793,0.000
1676160116.230,-124.512,41.504,32.227,-80.078,0.000
1676160116.234,-179.199,30.762,24.902,-165.527,0.000
1676160116.238,-200.195,63.965,63.965,-233.887,0.000
1676160116.242,-259.277,45.898,39.551,-272.949,0.000
1676160116.246,-293.457,2.441,-0.977,-252.930,0.000
1676160116.249,-238.770,17.090,34.180,-200.684,0.000
1676160116.254,-260.254,20.508,37.109,-274.414,0.000
1676160116.257,-305.664,9.277,6.836,-342.285,0.000
1676160116.261,-265.625,9.277,-6.836,-261.719,0.000
1676160116.265,-202.637,18.066,9.277,-168.457,0.000
1676160116.269,-211.426,27.832,19.043,-221.191,0.000
1676160116.273,-255.859,19.043,0.977,-296.387,0.000
1676160116.277,-239.258,3.418,-24.414,-237.793,0.000
1676160116.281,-158.203,7.812,-12.695,-118.164,0.000
1676160116.285,-112.793,21.973,15.625,-104.004,0.000
1676160116.289,-191.895,0.000,-27.832,-237.305,0.000
1676160116.292,-190.430,-6.348,-48.828,-214.844,0.000
1676160116.296,-83.984,8.301,-24.902,-44.434,0.000
1676160116.300,-41.504,14.160,-20.508,-23.926,0.000
1676160116.304,-85.938,7.324,-31.738,-116.699,0.000
1676160116.308,-83.984,-1.465,-25.879,-96.191,0.000
1676160116.312,0.977,-8.301,-17.578,34.668,0.000
1676160116.316,43.457,-11.719,-31.250,80.566,0.000
1676160116.320,32.715,0.488,-22.949,11.719,0.000
1676160116.324,7.812,1.953,-23.438,-45.410,0.000
1676160116.328,71.777,1.465,-19.531,87.402,0.000
1676160116.332,126.465,-9.277,-31.250,194.824,0.000
1676160116.335,55.664,-27.344,-72.266,64.453,0.000
1676160116.339,45.898,-4.395,-42.969,-1.465,0.000
1676160116.343,80.566,-6.348,-40.527,64.453,0.000
1676160116.347,113.281,-20.508,-70.312,156.250,0.000
1676160116.351,133.301,-7.324,-58.594,157.715,0.000
1676160116.355,105.469,15.625,-25.391,65.430,0.000
1676160116.359,89.355,12.207,-36.621,66.406,0.000
1676160116.363,134.277,-8.301,-60.059,187.988,0.000
1676160116.367,180.664,4.883,-45.898,241.211,0.000
1676160116.371,143.555,15.625,-41.992,125.977,0.000
1676160116.375,99.121,8.789,-51.270,61.523,0.000
1676160116.378,97.168,-14.648,-86.914,123.535,0.000
1676160116.382,156.250,-5.371,-74.707,205.566,0.000
1676160116.386,151.855,20.020,-42.969,138.184,0.000
1676160116.390,93.750,21.973,-53.223,26.855,0.000
1676160116.394,105.469,11.230,-67.383,103.516,0.000
1676160116.398,160.645,10.742,-63.965,214.355,0.000
1676160116.402,166.016,23.926,-49.805,173.828,0.000
1676160116.406,114.258,33.203,-43.457,70.801,0.000
1676160116.410,104.980,21.484,-60.059,93.750,0.000
1676160116.414,159.668,12.207,-67.383,204.102,0.000
1676160116.417,214.844,38.574,-34.180,241.699,0.000
1676160116.421,147.949,45.898,-34.668,127.441,0.000
1676160116.425,77.637,23.926,-70.801,54.688,0.000
1676160116.429,146.484,30.762,-61.035,178.711,0.000
1676160116.433,183.105,45.410,-46.387,229.980,0.000
1676160116.437,136.230,52.734,-39.062,122.559,0.000
1676160116.441,71.289,42.480,-59.082,39.551,0.000
1676160116.445,109.375,40.527,-62.500,142.578,0.000
1676160116.449,177.734,51.758,-45.898,235.840,0.000
1676160116.453,137.695,56.641,-47.363,143.066,0.000
1676160116.457,93.750,61.523,-37.109,63.477,0.000
1676160116.460,141.113,63.965,-28.320,154.297,0.000
1676160116.464,190.430,63.477,-31.250,252.441,0.000
1676160116.468,124.023,47.363,-58.594,148.926,0.000
1676160116.472,66.406,42.480,-55.176,31.738,0.000
1676160116.476,97.656,47.852,-39.062,85.449,0.000
1676160116.480,129.395,43.457,-50.781,179.688,0.000
1676160116.484,114.258,41.992,-54.199,152.832,0.000
1676160116.488,78.125,51.758,-38.086,55.176,0.000
1676160116.492,80.078,54.688,-27.344,60.547,0.000
1676160116.496,110.352,46.387,-39.551,149.902,0.000
1676160116.500,125.977,44.434,-44.434,173.828,0.000
1676160116.503,83.984,46.875,-42.969,80.078,0.000
1676160116.507,78.613,60.059,-21.484,61.523,0.000
1676160116.511,97.656,50.293,-35.156,121.582,0.000
1676160116.515,80.078,27.344,-74.219,112.305,0.000
1676160116.519,88.867,44.922,-44.434,81.543,0.000
1676160116.523,69.336,61.035,-27.832,31.738,0.000
1676160116.527,69.336,51.758,-44.434,61.035,0.000
1676160116.531,110.352,43.945,-57.129,128.906,0.000
1676160116.535,109.375,44.922,-44.434,116.211,0.000
1676160116.539,57.617,47.363,-25.879,33.691,0.000
1676160116.543,43.945,37.598,-39.551,34.668,0.000
1676160116.547,89.844,34.668,-41.504,132.324,0.000
1676160116.550,122.559,50.781,-17.090,148.438,0.000
1676160116.554,86.914,61.523,1.465,75.684,0.000
1676160116.558,26.855,49.316,-18.555,22.461,0.000
1676160116.562,34.180,37.109,-42.969,74.707,0.000
1676160116.566,104.980,60.547,-13.184,149.414,0.000
1676160116.570,104.004,84.961,20.996,105.469,0.000
1676160116.574,-3.906,62.500,-26.367,-28.809,0.000
1676160116.578,3.906,63.477,-30.273,19.531,0.000
1676160116.582,66.895,74.219,6.836,119.629,0.000
1676160116.586,20.020,67.383,7.324,31.738,0.000
1676160116.590,-73.242,61.523,3.906,-101.074,0.000
1676160116.593,-64.453,66.895,22.461,-52.246,0.000
1676160116.597,-56.641,63.477,37.598,7.812,0.000
1676160116.601,-106.445,59.570,43.945,-78.613,0.000
1676160116.605,-196.289,55.176,46.387,-224.121,0.000
1676160116.609,-264.160,41.016,45.410,-274.414,0.000
1676160116.613,-222.168,34.180,73.730,-159.668,0.000
1676160116.617,-230.469,16.113,65.918,-165.039,0.000
1676160116.621,-304.199,10.254,38.574,-315.430,0.000
1676160116.625,-313.477,20.996,41.992,-346.191,0.000
1676160116.629,-272.949,11.719,19.531,-247.070,0.000
1676160116.633,-252.441,-0.488,-0.488,-194.824,0.000
1676160116.636,-282.227,-5.371,3.906,-285.645,0.000
1676160116.640,-307.617,-0.488,1.465,-360.840,0.000
1676160116.644,-266.113,-1.465,-15.625,-278.320,0.000
1676160116.648,-206.055,-4.883,-38.086,-169.434,0.000
1676160116.652,-217.285,-4.395,-33.691,-206.543,0.000
1676160116.656,-251.953,1.465,-13.672,-297.852,0.000
1676160116.660,-221.191,-6.348,-11.719,-240.234,0.000
1676160116.664,-196.289,-24.902,-49.805,-150.879,0.000
1676160116.668,-188.965,-16.113,-56.152,-161.133,0.000
1676160116.671,-185.059,10.254,-21.484,-226.074,0.000
1676160116.676,-182.617,17.090,-28.320,-228.516,0.000
1676160116.679,-131.348,5.859,-57.129,-121.582,0.000
1676160116.683,-73.730,11.230,-41.992,-59.082,0.000
1676160116.687,-71.777,36.621,-7.324,-114.746,0.000
1676160116.691,-88.379,40.039,-10.742,-147.949,0.000
1676160116.695,-37.598,23.926,-31.738,-33.691,0.000
1676160116.699,22.949,18.066,-39.551,59.082,0.000
1676160116.703,56.641,45.410,-6.836,46.387,0.000
1676160116.707,8.301,43.457,-23.926,-44.922,0.000
1676160116.711,-35.156,-0.488,-82.031,-55.176,0.000
1676160116.714,62.012,5.371,-51.270,99.609,0.000
1676160116.718,109.863,24.902,-20.020,119.629,0.000
1676160116.722,58.594,22.949,-33.203,3.906,0.000
1676160116.726,53.711,8.789,-60.059,21.484,0.000
1676160116.730,154.297,15.137,-49.805,182.129,0.000
1676160116.734,180.176,27.832,-41.016,204.102,0.000
1676160116.738,121.582,30.273,-45.898,90.820,0.000
1676160116.742,130.371,36.621,-40.039,102.539,0.000
1676160116.746,180.176,30.273,-54.199,221.191,0.000
1676160116.750,215.820,26.367,-45.898,270.508,0.000
1676160116.754,159.668,19.531,-50.293,154.785,0.000
1676160116.757,119.629,21.973,-54.688,78.125,0.000
1676160116.761,179.199,29.297,-43.457,194.336,0.000
1676160116.765,227.539,32.227,-45.898,291.016,0.000
1676160116.769,194.336,31.738,-51.758,213.867,0.000
1676160116.773,157.715,34.180,-37.109,137.207,0.000
1676160116.777,193.359,37.598,-28.320,212.402,0.000
1676160116.781,240.723,39.062,-40.039,312.012,0.000
1676160116.785,223.145,44.434,-49.805,268.066,0.000
1676160116.789,179.688,54.688,-33.203,161.621,0.000
1676160116.793,199.219,64.453,-8.789,207.520,0.000
1676160116.797,216.797,44.922,-38.086,275.879,0.000
1676160116.800,177.734,23.438,-73.242,219.727,0.000
1676160116.804,167.480,48.340,-40.039,154.297,0.000
1676160116.808,153.320,56.152,-35.645,128.906,0.000
1676160116.812,166.504,34.668,-58.594,197.266,0.000
1676160116.816,210.449,42.969,-52.734,254.883,0.000
1676160116.820,199.219,65.430,-23.926,187.500,0.000
1676160116.824,151.855,62.012,-23.438,108.887,0.000
1676160116.828,152.832,49.316,-45.410,171.387,0.000
1676160116.832,203.125,51.270,-37.598,268.555,0.000
1676160116.836,206.543,68.359,-15.137,227.051,0.000
1676160116.839,134.766,68.359,-26.367,110.840,0.000
1676160116.843,88.379,41.504,-62.012,101.562,0.000
1676160116.847,143.066,35.645,-62.500,204.590,0.000
1676160116.851,187.500,58.105,-33.691,231.445,0.000
1676160116.855,145.996,76.660,-11.719,135.742,0.000
1676160116.859,92.285,57.129,-29.785,95.215,0.000
1676160116.863,133.301,45.898,-39.551,190.918,0.000
1676160116.867,186.035,61.523,-18.066,239.258,0.000
1676160116.871,132.812,60.059,-18.066,129.883,0.000
1676160116.875,86.426,56.152,-26.855,71.289,0.000
1676160116.879,121.094,52.734,-35.156,156.738,0.000
1676160116.882,182.129,55.664,-20.996,251.465,0.000
1676160116.886,150.391,63.477,-11.719,175.781,0.000
1676160116.890,57.129,51.270,-43.457,31.738,0.000
1676160116.894,75.684,45.410,-45.898,92.773,0.000
1676160116.898,156.250,57.129,-19.043,220.703,0.000
1676160116.902,125.977,48.340,-31.738,149.902,0.000
1676160116.906,43.457,45.898,-39.551,6.836,0.000
1676160116.910,75.684,56.152,-16.602,62.012,0.000
1676160116.914,142.578,56.641,-13.184,184.570,0.000
1676160116.918,134.766,55.664,-17.578,162.598,0.000
1676160116.922,82.520,58.105,-7.812,53.711,0.000
1676160116.925,83.496,65.430,1.465,53.711,0.000
1676160116.929,144.531,68.359,4.395,175.293,0.000
1676160116.933,135.742,54.688,-22.461,175.781,0.000
1676160116.937,69.824,52.734,-33.691,53.223,0.000
1676160116.941,73.242,71.289,0.000,45.410,0.000
1676160116.945,123.047,73.242,-0.488,142.090,0.000
1676160116.949,110.840,51.758,-41.016,154.785,0.000
1676160116.953,86.426,62.988,-24.902,94.238,0.000
1676160116.957,69.336,83.008,7.324,37.598,0.000
1676160116.961,74.707,72.754,-1.465,81.055,0.000
1676160116.965,99.609,62.988,-21.973,153.809,0.000
1676160116.968,129.395,79.102,7.324,151.855,0.000
1676160116.972,89.844,88.867,23.926,51.270,0.000
1676160116.976,60.547,80.078,17.090,49.805,0.000
1676160116.980,61.523,52.246,-6.836,106.934,0.000
1676160116.984,53.223,55.664,-15.625,79.590,0.000
1676160116.988,56.641,97.168,50.293,37.109,0.000
1676160116.992,-21.484,81.055,41.992,-31.738,0.000
1676160116.996,-73.730,49.316,-19.043,-46.875,0.000
1676160117.000,-23.438,68.359,20.020,12.695,0.000
1676160117.004,-75.684,75.684,53.223,-89.355,0.000
1676160117.008,-190.918,52.734,41.992,-239.258,0.000
1676160117.012,-191.895,42.969,45.898,-190.918,0.000
1676160117.015,-151.855,48.340,67.871,-112.305,0.000
1676160117.019,-196.777,58.105,77.148,-192.871,0.000
1676160117.023,-280.762,40.039,62.988,-321.777,0.000
1676160117.027,-302.734,12.207,43.457,-320.801,0.000
1676160117.031,-228.027,29.297,50.293,-198.730,0.000
1676160117.035,-209.961,40.039,61.523,-191.406,0.000
1676160117.039,-318.848,17.090,31.250,-349.121,0.000
1676160117.043,-317.383,17.578,22.461,-340.332,0.000
1676160117.047,-213.867,38.086,38.574,-182.617,0.000
1676160117.051,-176.270,47.363,37.598,-156.250,0.000
1676160117.055,-235.352,43.457,18.555,-282.227,0.000
1676160117.058,-227.539,43.457,28.320,-290.527,0.000
1676160117.062,-162.109,36.133,15.137,-171.387,0.000
1676160117.066,-140.625,26.367,-4.883,-128.418,0.000
1676160117.070,-152.344,44.434,15.137,-191.406,0.000
1676160117.074,-191.895,53.223,12.695,-253.906,0.000
1676160117.078,-136.230,59.082,15.625,-142.578,0.000
1676160117.082,-80.566,57.617,3.418,-48.828,0.000
1676160117.086,-139.160,43.457,-37.109,-155.273,0.000
1676160117.090,-136.230,64.941,-11.230,-194.824,0.000
1676160117.093,-106.934,68.848,-10.254,-126.953,0.000
1676160117.098,-73.242,58.594,-30.273,-43.457,0.000
1676160117.101,-29.785,67.383,-27.832,-30.762,0.000
1676160117.105,-37.109,82.031,-6.348,-84.473,0.000
1676160117.109,-44.434,73.242,-7.324,-67.871,0.000
1676160117.113,12.207,53.711,-35.645,21.973,0.000
1676160117.117,56.152,58.105,-38.574,75.684,0.000
1676160117.121,34.668,67.871,-28.320,16.113,0.000
1676160117.125,24.414,59.082,-20.508,-12.695,0.000
1676160117.129,24.414,23.926,-55.664,30.762,0.000
1676160117.133,74.707,15.625,-56.152,101.074,0.000
1676160117.136,113.770,34.668,-10.254,107.422,0.000
1676160117.140,89.844,33.203,-1.953,62.500,0.000
1676160117.144,88.867,11.719,-27.344,100.098,0.000
1676160117.148,144.531,5.371,-37.109,187.500,0.000
1676160117.152,173.828,18.066,-16.113,192.383,0.000
1676160117.156,127.930,17.578,-3.418,106.445,0.000
1676160117.160,109.375,0.977,-28.809,110.840,0.000
1676160117.164,186.035,5.371,-34.180,231.445,0.000
1676160117.168,257.324,38.086,0.977,300.293,0.000
1676160117.172,180.176,32.715,-17.090,183.105,0.000
1676160117.176,97.168,2.930,-67.871,99.121,0.000
1676160117.179,189.941,19.043,-44.434,244.629,0.000
1676160117.183,238.281,31.738,-25.879,309.082,0.000
1676160117.187,183.105,26.367,-33.203,202.637,0.000
1676160117.191,137.695,20.996,-44.434,122.559,0.000
1676160117.195,188.477,22.949,-41.504,212.891,0.000
1676160117.199,244.141,30.273,-32.715,304.199,0.000
1676160117.203,208.496,41.016,-31.738,235.352,0.000
1676160117.207,160.645,44.434,-28.320,136.719,0.000
1676160117.211,197.266,46.875,-17.090,199.219,0.000
1676160117.215,259.766,46.875,-14.648,321.289,0.000
1676160117.218,206.543,31.250,-54.199,234.375,0.000
1676160117.222,141.113,35.156,-59.082,115.234,0.000
1676160117.226,166.992,44.434,-35.645,163.574,0.000
1676160117.230,208.008,34.180,-46.875,259.766,0.000
1676160117.234,208.008,31.250,-53.223,262.695,0.000
1676160117.238,175.293,43.457,-34.180,166.016,0.000
1676160117.242,158.203,40.039,-25.391,140.137,0.000
1676160117.246,183.105,31.738,-40.527,217.773,0.000
1676160117.250,219.727,37.598,-44.434,265.625,0.000
1676160117.254,182.129,43.457,-41.016,180.664,0.000
1676160117.258,152.832,54.688,-21.973,131.836,0.000
1676160117.262,164.551,46.387,-37.109,185.059,0.000
1676160117.266,165.039,26.855,-74.707,212.402,0.000
1676160117.269,169.434,42.969,-56.152,186.035,0.000
1676160117.273,144.043,57.617,-30.762,121.094,0.000
1676160117.277,139.160,45.898,-43.457,139.160,0.000
1676160117.281,181.641,39.551,-53.711,226.074,0.000
1676160117.285,188.477,45.898,-41.992,209.961,0.000
1676160117.289,126.953,52.734,-37.109,95.703,0.000
1676160117.293,93.262,43.457,-50.781,78.125,0.000
1676160117.297,140.137,35.156,-59.082,175.293,0.000
1676160117.301,180.664,46.875,-36.621,226.074,0.000
1676160117.305,138.672,58.594,-17.090,138.184,0.000
1676160117.309,64.941,41.016,-41.504,40.039,0.000
1676160117.312,74.219,22.461,-65.430,100.586,0.000
1676160117.316,153.320,40.527,-31.250,214.844,0.000
1676160117.320,125.000,46.387,-16.602,144.531,0.000
1676160117.324,31.738,27.832,-46.875,7.324,0.000
1676160117.328,60.547,21.484,-49.316,80.078,0.000
1676160117.332,161.133,40.039,-20.996,225.586,0.000
1676160117.336,157.227,49.805,-8.789,186.523,0.000
1676160117.340,41.992,30.762,-42.480,6.348,0.000
1676160117.344,53.711,32.715,-37.598,39.551,0.000
1676160117.348,131.348,40.039,-23.926,177.734,0.000
1676160117.352,135.254,41.016,-25.391,165.039,0.000
1676160117.355,50.781,37.598,-33.203,28.809,0.000
1676160117.359,18.066,30.273,-43.457,-11.719,0.000
1676160117.363,136.230,47.852,-0.488,175.781,0.000
1676160117.367,148.926,42.969,-8.789,206.055,0.000
1676160117.371,31.250,23.926,-47.363,20.020,0.000
1676160117.375,24.902,38.086,-26.367,-7.324,0.000
1676160117.379,64.941,30.762,-38.086,80.078,0.000
1676160117.383,87.402,24.414,-43.457,133.789,0.000
1676160117.387,59.570,37.109,-31.738,64.941,0.000
1676160117.391,41.992,53.223,-5.371,3.418,0.000
1676160117.395,82.031,54.688,0.000,78.613,0.000
1676160117.398,99.121,37.598,-39.062,147.949,0.000
1676160117.402,64.941,29.297,-49.316,89.844,0.000
1676160117.406,19.531,34.180,-31.738,-10.254,0.000
1676160117.410,52.734,46.875,-0.488,54.688,0.000
1676160117.414,54.199,26.855,-34.668,108.887,0.000
1676160117.418,53.223,20.020,-40.527,91.309,0.000
1676160117.422,46.875,49.316,-17.578,22.461,0.000
1676160117.426,20.996,53.223,-43.945,-27.832,0.000
1676160117.430,36.621,20.508,-64.453,48.340,0.000
1676160117.434,74.219,19.043,-42.480,115.723,0.000
1676160117.438,61.523,42.969,-3.906,48.828,0.000
1676160117.441,2.441,23.926,-5.371,-33.691,0.000
1676160117.445,39.062,8.789,-9.277,50.293,0.000
1676160117.449,110.840,29.785,0.977,144.531,0.000
1676160117.453,124.023,64.453,35.156,132.812,0.000
1676160117.457,48.340,54.199,19.531,24.414,0.000
1676160117.461,-8.301,14.160,-32.715,-12.207,0.000
1676160117.465,81.543,29.297,-5.859,129.883,0.000
1676160117.469,110.840,57.129,23.926,137.207,0.000
1676160117.473,45.898,62.988,18.555,7.812,0.000
1676160117.477,37.598,60.547,11.230,12.207,0.000
1676160117.481,104.492,57.129,21.973,142.578,0.000
1676160117.484,132.812,62.500,30.762,170.898,0.000
1676160117.488,77.637,68.848,29.785,53.223,0.000
1676160117.492,58.105,66.895,30.273,26.855,0.000
1676160117.496,102.539,60.059,19.531,117.676,0.000
1676160117.500,138.184,68.359,29.785,181.152,0.000
1676160117.504,65.430,68.359,14.648,64.453,0.000
1676160117.508,20.508,74.219,12.207,-22.461,0.000
1676160117.512,66.895,72.754,26.367,74.707,0.000
1676160117.516,95.703,63.965,9.277,133.789,0.000
1676160117.520,63.477,75.684,8.301,56.641,0.000
1676160117.524,19.043,85.449,25.391,-21.973,0.000
1676160117.527,42.969,85.449,34.668,30.762,0.000
1676160117.531,84.961,82.520,35.156,111.816,0.000
1676160117.535,52.246,80.566,30.762,57.617,0.000
1676160117.539,-9.277,90.332,40.527,-59.082,0.000
1676160117.543,-4.395,101.562,69.824,-39.062,0.000
1676160117.547,-23.926,88.379,52.734,1.953,0.000
1676160117.551,-102.051,62.988,15.137,-87.402,0.000
1676160117.555,-145.996,65.430,50.293,-186.523,0.000
1676160117.559,-210.938,56.152,61.523,-251.953,0.000
1676160117.562,-226.074,41.016,54.199,-207.520,0.000
1676160117.566,-241.211,27.832,50.293,-208.984,0.000
1676160117.570,-288.086,31.250,60.059,-305.176,0.000
1676160117.574,-312.988,39.062,63.477,-370.605,0.000
1676160117.578,-299.805,23.438,41.504,-326.172,0.000
1676160117.582,-251.465,20.020,41.016,-237.793,0.000
1676160117.586,-223.633,37.598,62.012,-242.676,0.000
1676160117.590,-254.395,44.434,65.430,-291.504,0.000
1676160117.594,-293.457,9.766,17.578,-303.711,0.000
1676160117.598,-242.188,-4.883,1.465,-219.238,0.000
1676160117.602,-176.270,25.391,22.949,-160.645,0.000
1676160117.605,-193.359,35.645,16.602,-235.840,0.000
1676160117.609,-217.285,10.742,-5.371,-261.719,0.000
1676160117.613,-151.367,4.395,-4.395,-138.672,0.000
1676160117.617,-73.242,21.484,11.230,-52.246,0.000
1676160117.621,-103.027,18.555,0.977,-119.141,0.000
1676160117.625,-130.371,7.324,-14.648,-161.133,0.000
1676160117.629,-70.801,-3.906,-22.461,-60.059,0.000
1676160117.633,30.762,9.277,-1.465,65.918,0.000
1676160117.637,17.090,15.625,-1.465,14.648,0.000
1676160117.641,-68.848,-9.277,-36.621,-112.793,0.000
1676160117.645,-17.578,-14.160,-27.832,-20.508,0.000
1676160117.648,51.270,-9.277,-25.879,96.680,0.000
1676160117.652,59.082,-1.465,-28.809,62.012,0.000
1676160117.656,27.832,6.348,-26.367,-25.879,0.000
1676160117.660,38.086,8.789,-29.297,16.602,0.000
1676160117.664,97.168,5.859,-38.574,127.441,0.000
1676160117.668,109.863,5.371,-50.293,118.652,0.000
1676160117.672,64.453,10.254,-48.828,29.297,0.000
1676160117.676,55.176,11.230,-45.410,37.109,0.000
1676160117.680,102.051,3.418,-54.199,148.926,0.000
1676160117.684,124.512,0.000,-70.801,185.059,0.000
1676160117.688,83.008,9.277,-79.590,83.496,0.000
1676160117.691,84.961,21.484,-52.246,60.059,0.000
1676160117.695,125.488,12.207,-46.387,159.180,0.000
1676160117.699,118.652,-7.324,-81.055,178.711,0.000
1676160117.703,116.699,2.930,-68.848,124.512,0.000
1676160117.707,97.168,16.113,-47.363,63.477,0.000
1676160117.711,101.074,16.602,-48.828,107.910,0.000
1676160117.715,134.277,10.742,-65.430,189.941,0.000
1676160117.719,160.645,19.043,-48.828,193.848,0.000
1676160117.723,113.770,23.926,-44.434,100.098,0.000
1676160117.727,96.191,17.090,-59.082,90.332,0.000
1676160117.731,142.578,3.418,-65.430,183.594,0.000
1676160117.734,150.391,3.906,-63.965,190.918,0.000
1676160117.738,136.719,27.832,-28.320,135.254,0.000
1676160117.742,84.961,24.414,-37.598,85.449,0.000
1676160117.746,71.289,0.488,-85.449,105.957,0.000
1676160117.750,147.949,20.996,-61.523,187.988,0.000
1676160117.754,118.164,33.691,-55.176,124.512,0.000
1676160117.758,43.457,18.555,-72.266,29.297,0.000
1676160117.762,79.102,14.160,-72.754,101.562,0.000
1676160117.766,153.809,23.438,-64.453,207.520,0.000
1676160117.770,152.344,36.133,-54.688,169.922,0.000
1676160117.774,83.984,34.668,-56.152,61.523,0.000
1676160117.777,61.035,16.602,-75.684,63.477,0.000
1676160117.781,129.395,18.066,-73.730,180.176,0.000
1676160117.785,174.316,33.203,-42.969,209.961,0.000
1676160117.789,78.125,17.090,-67.871,52.246,0.000
1676160117.793,31.738,4.883,-93.262,3.906,0.000
1676160117.797,107.422,11.230,-76.172,140.625,0.000
1676160117.801,144.531,20.996,-66.895,197.266,0.000
1676160117.805,83.496,24.902,-67.871,88.867,0.000
1676160117.809,50.293,26.855,-64.453,36.133,0.000
1676160117.813,104.492,23.926,-58.594,145.020,0.000
1676160117.817,117.188,8.301,-71.289,188.965,0.000
1676160117.820,77.148,10.742,-77.148,103.027,0.000
1676160117.824,22.949,13.672,-82.031,6.348,0.000
1676160117.828,60.547,17.578,-70.801,84.473,0.000
1676160117.832,101.074,6.836,-82.520,169.922,0.000
1676160117.836,41.992,-12.695,-106.445,60.547,0.000
1676160117.840,19.043,3.906,-69.336,-10.254,0.000
1676160117.844,42.480,9.766,-60.547,40.039,0.000
1676160117.848,81.055,2.441,-74.707,135.742,0.000
1676160117.852,77.148,3.906,-78.613,111.816,0.000
1676160117.856,45.898,18.066,-64.453,17.090,0.000
1676160117.860,36.621,19.043,-63.965,8.789,0.000
1676160117.863,62.500,9.277,-69.824,95.703,0.000
1676160117.867,87.402,10.742,-51.270,147.461,0.000
1676160117.871,70.801,25.391,-33.691,72.754,0.000
1676160117.875,39.062,28.809,-30.273,11.230,0.000
1676160117.879,28.809,5.371,-68.359,48.828,0.000
1676160117.883,67.383,6.836,-74.707,118.164,0.000
1676160117.887,78.125,28.809,-39.551,98.633,0.000
1676160117.891,26.855,26.855,-41.504,-0.977,0.000
1676160117.895,22.949,8.301,-62.988,27.832,0.000
1676160117.899,85.938,10.742,-54.688,144.531,0.000
1676160117.902,102.051,27.344,-36.621,132.324,0.000
1676160117.906,45.898,31.250,-32.227,16.113,0.000
1676160117.910,18.555,20.996,-46.387,1.465,0.000
1676160117.914,65.430,15.137,-47.852,125.000,0.000
1676160117.918,127.441,35.645,-8.789,192.383,0.000
1676160117.922,55.176,40.527,-21.973,64.453,0.000
1676160117.926,-44.434,8.789,-75.195,-48.340,0.000
1676160117.930,19.043,7.812,-58.594,63.477,0.000
1676160117.934,78.613,19.043,-34.668,131.348,0.000
1676160117.938,28.809,19.531,-37.109,27.832,0.000
1676160117.942,-30.762,17.090,-41.504,-59.082,0.000
1676160117.945,17.578,19.531,-33.203,36.133,0.000
1676160117.949,75.684,29.785,-26.367,131.836,0.000
1676160117.953,34.668,24.902,-27.344,52.246,0.000
1676160117.957,-16.113,23.438,-17.578,-51.270,0.000
1676160117.961,-1.465,25.391,-11.719,-9.277,0.000
1676160117.965,24.414,21.484,-21.484,68.848,0.000
1676160117.969,-19.531,20.508,-36.621,1.465,0.000
1676160117.973,-83.984,33.691,-23.438,-120.117,0.000
1676160117.977,-99.609,31.250,-2.930,-117.676,0.000
1676160117.980,-78.613,22.949,0.977,-24.414,0.000
1676160117.984,-97.168,18.066,-4.883,-50.781,0.000
1676160117.988,-172.852,16.113,7.812,-189.453,0.000
1676160117.992,-225.586,14.648,39.551,-246.094,0.000
1676160117.996,-220.703,6.348,41.016,-196.777,0.000
1676160118.000,-204.102,7.812,44.434,-166.992,0.000
1676160118.004,-246.582,13.672,56.641,-257.812,0.000
1676160118.008,-280.273,22.949,64.941,-316.406,0.000
1676160118.012,-280.273,4.395,42.480,-261.230,0.000
1676160118.016,-286.133,-19.043,6.348,-246.094,0.000
1676160118.019,-268.066,0.488,19.531,-269.531,0.000
1676160118.023,-286.621,13.672,23.438,-339.844,0.000
1676160118.027,-288.574,4.883,-0.488,-325.195,0.000
1676160118.031,-233.398,2.441,-15.137,-219.238,0.000
1676160118.035,-194.336,13.184,-2.441,-203.125,0.000
1676160118.039,-221.191,19.531,6.836,-286.621,0.000
1676160118.043,-243.652,10.254,-12.695,-300.293,0.000
1676160118.047,-189.941,3.418,-26.367,-192.383,0.000
1676160118.051,-129.395,12.695,-14.160,-122.070,0.000
1676160118.055,-129.395,25.879,-2.441,-163.086,0.000
1676160118.059,-188.477,1.953,-39.551,-244.629,0.000
1676160118.063,-166.992,-23.438,-65.918,-178.223,0.000
1676160118.066,-57.617,-3.906,-33.691,-35.645,0.000
1676160118.070,-48.828,8.789,-18.555,-74.707,0.000
1676160118.074,-125.977,-13.672,-63.477,-194.336,0.000
1676160118.078,-93.262,-25.879,-74.707,-116.211,0.000
1676160118.082,2.441,-20.020,-45.410,25.879,0.000
1676160118.086,9.277,-20.996,-43.457,-0.977,0.000
1676160118.090,-42.969,-22.949,-65.430,-105.469,0.000
1676160118.094,-8.301,-20.020,-58.105,-37.598,0.000
1676160118.098,60.547,-24.414,-58.105,82.520,0.000
1676160118.102,84.473,-23.926,-55.664,93.262,0.000
1676160118.106,38.086,-25.391,-59.082,-7.812,0.000
1676160118.109,13.672,-34.180,-82.520,-45.898,0.000
1676160118.113,127.930,-20.020,-54.688,136.719,0.000
1676160118.117,159.668,-20.020,-57.617,188.965,0.000
1676160118.121,84.961,-27.344,-78.613,56.152,0.000
1676160118.125,82.520,-15.625,-62.500,35.156,0.000
1676160118.129,105.469,-22.461,-88.379,103.027,0.000
1676160118.133,136.719,-26.367,-92.773,166.016,0.000
1676160118.137,121.094,-24.414,-73.730,116.699,0.000
1676160118.141,97.168,-12.695,-62.988,59.570,0.000
1676160118.145,123.047,-3.906,-65.918,112.793,0.000
1676160118.149,171.875,-4.395,-71.777,201.660,0.000
1676160118.152,157.715,-7.324,-90.820,167.480,0.000
1676160118.156,125.977,5.859,-79.102,78.613,0.000
1676160118.160,143.066,12.695,-56.641,122.070,0.000
1676160118.164,138.672,-8.301,-96.680,177.734,0.000
1676160118.168,157.715,4.395,-89.355,187.988,0.000
1676160118.172,146.484,26.367,-52.734,121.582,0.000
1676160118.176,105.957,18.555,-66.895,70.801,0.000
1676160118.180,130.371,7.324,-94.238,139.160,0.000
1676160118.184,192.871,23.438,-67.383,221.680,0.000
1676160118.188,169.434,32.227,-49.805,154.297,0.000
1676160118.191,105.469,25.879,-70.801,55.176,0.000
1676160118.195,124.023,17.090,-72.266,130.371,0.000
1676160118.199,169.922,9.277,-70.801,223.633,0.000
1676160118.203,185.547,28.809,-49.805,211.426,0.000
1676160118.207,115.723,29.785,-50.293,98.633,0.000
1676160118.211,60.059,4.395,-87.891,76.172,0.000
1676160118.215,152.832,21.973,-65.918,216.797,0.000
1676160118.219,176.758,34.668,-49.805,216.309,0.000
1676160118.223,101.562,34.668,-53.711,94.727,0.000
1676160118.227,75.684,32.227,-63.965,80.566,0.000
1676160118.231,137.207,28.320,-57.129,202.148,0.000
1676160118.234,177.246,33.691,-47.363,242.188,0.000
1676160118.238,129.883,41.016,-50.293,127.930,0.000
1676160118.242,86.426,38.086,-48.828,59.570,0.000
1676160118.246,125.488,32.227,-47.852,156.250,0.000
1676160118.250,179.199,41.992,-41.992,245.605,0.000
1676160118.254,104.004,36.133,-65.918,123.047,0.000
1676160118.258,41.504,27.832,-68.359,20.020,0.000
1676160118.262,95.703,36.621,-49.316,110.352,0.000
1676160118.266,142.578,33.691,-61.035,201.660,0.000
1676160118.270,113.770,27.832,-67.383,143.066,0.000
1676160118.274,61.523,38.086,-50.293,40.039,0.000
1676160118.277,77.637,43.945,-42.480,79.590,0.000
1676160118.281,134.766,36.621,-39.062,193.848,0.000
1676160118.285,136.719,35.645,-34.180,182.129,0.000
1676160118.289,82.031,42.480,-30.273,66.406,0.000
1676160118.293,81.055,48.340,-19.043,73.242,0.000
1676160118.297,111.816,34.668,-42.480,173.340,0.000
1676160118.301,93.750,16.602,-78.125,148.926,0.000
1676160118.305,69.336,31.250,-52.246,60.547,0.000
1676160118.309,40.527,36.621,-42.969,9.766,0.000
1676160118.312,59.082,24.414,-63.477,79.590,0.000
1676160118.316,89.355,23.926,-69.824,141.602,0.000
1676160118.320,83.496,34.180,-50.781,87.891,0.000
1676160118.324,31.250,25.391,-49.805,-6.348,0.000
1676160118.328,17.578,8.301,-71.289,17.578,0.000
1676160118.332,73.242,7.812,-73.242,122.559,0.000
1676160118.336,92.773,23.926,-53.223,112.793,0.000
1676160118.340,45.410,27.832,-38.574,24.414,0.000
1676160118.344,-10.254,-1.465,-79.102,-13.672,0.000
1676160118.348,39.062,-4.395,-88.867,75.195,0.000
1676160118.352,92.773,11.719,-51.758,128.418,0.000
1676160118.355,27.832,17.578,-50.293,15.137,0.000
1676160118.359,-14.160,16.602,-63.965,-39.551,0.000
1676160118.363,56.152,19.043,-57.129,77.637,0.000
1676160118.367,117.676,27.832,-34.668,157.227,0.000
1676160118.371,72.266,28.320,-34.180,49.805,0.000
1676160118.375,13.672,30.273,-45.410,-36.621,0.000
1676160118.379,33.691,28.809,-55.176,31.738,0.000
1676160118.383,119.141,37.109,-30.762,155.762,0.000
1676160118.387,94.238,40.039,-24.902,107.422,0.000
1676160118.391,-16.113,22.949,-63.965,-56.641,0.000
1676160118.394,11.230,23.926,-57.129,3.906,0.000
1676160118.398,79.102,32.227,-42.969,128.906,0.000
1676160118.402,64.453,33.691,-47.852,87.402,0.000
1676160118.406,27.832,41.016,-39.551,-13.672,0.000
1676160118.410,24.414,34.180,-38.574,-11.719,0.000
1676160118.414,43.457,17.090,-46.387,51.758,0.000
1676160118.418,41.992,14.648,-45.898,74.219,0.000
1676160118.422,12.695,27.832,-30.273,6.348,0.000
1676160118.426,19.043,44.434,-11.230,-14.648,0.000
1676160118.430,68.359,43.945,-10.742,89.844,0.000
1676160118.434,76.660,34.180,-26.855,120.605,0.000
1676160118.438,26.855,38.086,-22.949,17.090,0.000
1676160118.441,4.883,51.270,2.930,-46.387,0.000
1676160118.445,34.668,41.016,0.000,32.227,0.000
1676160118.449,32.227,22.949,-32.227,76.172,0.000
1676160118.453,21.484,38.574,-16.602,30.762,0.000
1676160118.457,-19.043,49.316,6.348,-69.336,0.000
1676160118.461,-54.688,44.922,-2.930,-78.125,0.000
1676160118.465,-28.809,34.668,-8.789,4.883,0.000
1676160118.469,-15.137,41.992,12.695,3.906,0.000
1676160118.473,-83.496,49.805,35.645,-125.977,0.000
1676160118.477,-138.672,43.457,38.086,-173.828,0.000
1676160118.481,-161.621,20.996,20.508,-124.023,0.000
1676160118.485,-195.801,11.230,21.484,-167.480,0.000
1676160118.488,-211.914,41.504,82.520,-232.422,0.000
1676160118.492,-280.273,30.273,76.172,-320.312,0.000
1676160118.496,-319.824,0.488,26.367,-319.824,0.000
1676160118.500,-245.605,16.602,45.898,-206.055,0.000
1676160118.504,-255.371,26.855,52.734,-267.578,0.000
1676160118.508,-325.684,22.949,42.969,-383.301,0.000
1676160118.512,-308.105,11.719,24.902,-325.684,0.000
1676160118.516,-221.680,17.090,26.367,-192.383,0.000
1676160118.520,-199.219,28.320,34.180,-197.754,0.000
1676160118.524,-249.512,34.180,21.973,-304.688,0.000
1676160118.528,-254.883,22.461,3.906,-294.922,0.000
1676160118.531,-179.199,12.207,0.488,-156.250,0.000
1676160118.535,-120.117,28.320,22.949,-90.332,0.000
1676160118.539,-201.660,21.484,-2.930,-228.516,0.000
1676160118.543,-202.148,16.113,-10.742,-244.629,0.000
1676160118.547,-100.586,10.254,1.953,-90.820,0.000
1676160118.551,-69.336,1.465,-6.348,-50.781,0.000
1676160118.555,-93.750,6.836,-2.441,-132.812,0.000
1676160118.559,-103.027,9.277,1.465,-157.715,0.000
1676160118.563,-43.457,3.906,-4.395,-35.645,0.000
1676160118.567,8.301,-5.859,-20.020,48.828,0.000
1676160118.571,7.324,-1.953,-17.578,-7.812,0.000
1676160118.574,-28.320,0.000,-18.066,-79.102,0.000
1676160118.578,27.832,7.812,-13.672,24.414,0.000
1676160118.582,82.520,-0.488,-30.762,129.395,0.000
1676160118.586,31.250,-19.043,-62.500,48.828,0.000
1676160118.590,23.438,1.953,-41.504,-18.066,0.000
1676160118.594,42.480,0.488,-46.387,4.883,0.000
1676160118.598,75.684,-12.695,-66.406,92.773,0.000
1676160118.602,99.121,-8.301,-57.617,143.555,0.000
1676160118.606,76.660,-3.906,-49.805,71.289,0.000
1676160118.610,61.035,-6.348,-56.641,39.062,0.000
1676160118.613,107.910,-9.277,-62.012,145.996,0.000
1676160118.617,166.992,-0.488,-55.176,209.961,0.000
1676160118.621,154.297,13.672,-41.016,138.672,0.000
1676160118.625,112.305,15.137,-31.738,78.613,0.000
1676160118.629,93.750,-10.254,-66.406,104.492,0.000
1676160118.633,147.949,-12.695,-69.336,190.430,0.000
1676160118.637,157.715,-1.953,-52.734,173.340,0.000
1676160118.641,91.309,-4.883,-61.523,64.941,0.000
1676160118.645,86.426,-12.695,-79.102,91.797,0.000
1676160118.649,158.203,-8.301,-75.195,212.891,0.000
1676160118.653,190.918,8.301,-45.410,230.469,0.000
1676160118.657,139.648,17.090,-35.156,141.113,0.000
1676160118.660,104.492,9.766,-53.223,105.957,0.000
1676160118.664,158.203,2.441,-64.453,205.566,0.000
1676160118.668,222.656,14.648,-30.762,289.062,0.000
1676160118.672,147.949,14.648,-37.598,164.551,0.000
1676160118.676,47.852,-8.789,-88.867,30.273,0.000
1676160118.680,114.258,-9.277,-71.289,150.391,0.000
1676160118.684,172.363,-2.441,-52.734,242.188,0.000
1676160118.688,145.508,9.766,-48.340,157.715,0.000
1676160118.692,90.820,10.254,-57.617,62.500,0.000
1676160118.696,111.816,2.441,-66.895,121.094,0.000
1676160118.699,170.898,2.441,-65.430,221.680,0.000
1676160118.703,147.461,2.930,-71.777,160.156,0.000
1676160118.707,95.215,10.254,-61.523,60.547,0.000
1676160118.711,107.422,13.672,-56.152,109.863,0.000
1676160118.715,161.621,18.066,-56.152,230.957,0.000
1676160118.719,131.348,9.277,-75.195,186.523,0.000
1676160118.723,73.242,15.137,-70.312,62.500,0.000
1676160118.727,83.008,28.809,-44.434,84.473,0.000
1676160118.731,121.582,16.602,-55.176,180.176,0.000
1676160118.735,128.906,8.301,-66.406,199.219,0.000
1676160118.739,99.121,19.531,-50.781,111.328,0.000
1676160118.743,79.102,23.926,-40.527,61.035,0.000
1676160118.746,102.539,18.555,-50.293,143.066,0.000
1676160118.750,129.883,16.602,-58.105,204.102,0.000
1676160118.754,101.562,16.602,-54.688,106.934,0.000
1676160118.758,84.473,35.645,-23.926,69.336,0.000
1676160118.762,98.145,23.926,-31.738,145.020,0.000
1676160118.766,86.426,-3.906,-82.031,162.109,0.000
1676160118.770,95.703,11.719,-58.594,146.973,0.000
1676160118.774,56.641,17.090,-44.922,56.152,0.000
1676160118.778,39.551,12.695,-60.547,47.363,0.000
1676160118.781,82.031,12.207,-71.289,143.555,0.000
1676160118.786,107.910,27.344,-52.734,162.598,0.000
1676160118.789,61.035,35.645,-35.156,52.246,0.000
1676160118.793,6.836,21.484,-54.199,-1.953,0.000
1676160118.797,51.758,14.160,-59.082,98.633,0.000
1676160118.801,104.492,20.508,-48.340,160.645,0.000
1676160118.805,82.520,38.086,-30.273,90.332,0.000
1676160118.809,20.996,38.086,-40.039,9.766,0.000
1676160118.813,22.461,22.461,-68.848,51.270,0.000
1676160118.817,99.121,34.668,-48.340,153.809,0.000
1676160118.821,96.191,50.293,-26.855,127.930,0.000
1676160118.824,-9.277,31.250,-57.617,-24.414,0.000
1676160118.828,0.977,20.996,-62.988,6.836,0.000
1676160118.832,97.656,27.344,-35.156,160.156,0.000
1676160118.836,92.773,27.344,-31.738,129.395,0.000
1676160118.840,5.859,25.391,-46.875,-17.090,0.000
1676160118.844,18.066,34.180,-33.691,11.230,0.000
1676160118.848,81.543,30.762,-31.250,130.371,0.000
1676160118.852,93.262,32.715,-32.715,126.953,0.000
1676160118.856,44.434,40.039,-26.855,17.578,0.000
1676160118.860,1.953,28.320,-45.898,-29.297,0.000
1676160118.864,64.941,34.668,-33.691,111.816,0.000
1676160118.867,88.379,35.156,-37.109,158.203,0.000
1676160118.871,28.809,27.344,-58.594,16.602,0.000
1676160118.875,14.160,38.086,-32.715,-26.367,0.000
1676160118.879,42.480,30.273,-38.574,50.781,0.000
1676160118.883,83.008,23.438,-52.246,123.535,0.000
1676160118.887,72.754,36.133,-41.016,79.590,0.000
1676160118.891,35.645,47.363,-19.043,2.441,0.000
1676160118.895,47.852,44.434,-12.695,40.527,0.000
1676160118.899,100.586,40.039,-24.414,125.000,0.000
1676160118.903,79.102,37.109,-30.273,95.215,0.000
1676160118.907,17.090,45.898,-9.766,5.859,0.000
1676160118.910,32.715,54.199,9.766,25.879,0.000
1676160118.914,35.645,39.551,-22.461,74.707,0.000
1676160118.918,27.344,33.691,-34.180,60.547,0.000
1676160118.922,8.301,43.457,-2.930,-23.438,0.000
1676160118.926,-36.621,39.551,-0.977,-92.773,0.000
1676160118.930,-40.039,30.762,-7.812,-31.250,0.000
1676160118.934,-12.695,36.133,2.930,24.414,0.000
1676160118.938,-41.016,43.945,29.297,-55.176,0.000
1676160118.942,-120.605,31.738,46.875,-166.992,0.000
1676160118.946,-135.254,16.113,41.992,-147.461,0.000
1676160118.950,-130.371,11.719,20.508,-105.957,0.000
1676160118.953,-140.137,32.227,50.781,-146.973,0.000
1676160118.957,-227.539,29.297,64.453,-277.344,0.000
1676160118.961,-316.895,-1.465,13.672,-348.145,0.000
1676160118.965,-254.883,12.695,13.184,-244.141,0.000
1676160118.969,-210.449,33.203,31.738,-209.473,0.000
1676160118.973,-280.273,25.879,30.762,-333.496,0.000
1676160118.977,-325.684,14.648,10.254,-379.395,0.000
1676160118.981,-251.953,26.855,-0.977,-256.836,0.000
1676160118.985,-202.637,37.109,-0.488,-191.895,0.000
1676160118.989,-236.816,30.762,4.395,-275.879,0.000
1676160118.993,-248.047,37.598,5.859,-308.105,0.000
1676160118.996,-188.965,37.109,-13.672,-194.824,0.000
1676160119.000,-120.605,33.691,-4.395,-80.078,0.000
1676160119.004,-161.621,21.484,-22.949,-160.156,0.000
1676160119.008,-197.754,19.043,-38.574,-259.277,0.000
1676160119.012,-117.188,26.855,-14.648,-145.996,0.000
1676160119.016,-37.109,18.555,-20.508,-9.277,0.000
1676160119.020,-39.551,14.160,-35.156,-41.016,0.000
1676160119.024,-64.941,20.996,-16.113,-115.234,0.000
1676160119.028,-31.738,19.531,-3.906,-61.523,0.000
1676160119.032,36.621,11.719,-19.531,65.430,0.000
1676160119.035,51.758,8.301,-29.297,80.566,0.000
1676160119.039,21.973,9.766,-26.367,-3.906,0.000
1676160119.043,39.551,10.254,-17.090,20.996,0.000
1676160119.047,63.477,-6.348,-52.246,99.121,0.000
1676160119.051,50.781,-24.902,-97.656,80.078,0.000
1676160119.055,62.012,-2.441,-67.383,42.480,0.000
1676160119.059,43.945,13.184,-50.781,-2.441,0.000
1676160119.063,60.059,2.441,-71.777,57.129,0.000
1676160119.067,115.723,1.465,-81.055,163.086,0.000
1676160119.071,132.812,16.113,-52.734,144.043,0.000
1676160119.075,93.262,21.484,-32.227,57.129,0.000
1676160119.078,88.379,11.719,-47.852,89.355,0.000
1676160119.082,148.438,11.719,-52.246,205.566,0.000
1676160119.086,170.410,20.996,-46.387,207.031,0.000
1676160119.090,118.164,25.391,-46.875,98.145,0.000
1676160119.094,77.637,15.137,-69.824,65.430,0.000
1676160119.098,130.371,12.695,-72.754,167.969,0.000
1676160119.102,187.500,27.832,-51.758,221.191,0.000
1676160119.106,144.531,36.621,-42.969,128.418,0.000
1676160119.110,79.102,23.438,-62.988,45.410,0.000
1676160119.114,122.559,18.555,-68.848,140.137,0.000
1676160119.117,181.641,34.180,-44.434,240.234,0.000
1676160119.121,147.461,44.434,-38.086,155.273,0.000
1676160119.125,97.656,46.875,-42.480,64.453,0.000
1676160119.129,110.840,41.992,-48.340,136.230,0.000
1676160119.133,185.059,44.922,-28.809,262.207,0.000
1676160119.137,177.246,47.852,-19.531,200.195,0.000
1676160119.141,61.035,29.785,-60.059,21.484,0.000
1676160119.145,61.523,28.809,-63.477,62.988,0.000
1676160119.149,132.324,30.762,-52.246,186.523,0.000
1676160119.153,131.348,30.273,-58.594,165.039,0.000
1676160119.156,74.219,38.574,-54.199,46.875,0.000
1676160119.160,65.430,44.922,-45.898,40.527,0.000
1676160119.164,113.281,41.992,-45.898,151.367,0.000
1676160119.168,125.488,43.945,-51.758,169.922,0.000
1676160119.172,83.496,54.199,-42.480,71.777,0.000
1676160119.176,56.641,49.316,-32.715,30.762,0.000
1676160119.180,108.887,44.434,-29.297,134.766,0.000
1676160119.184,136.230,40.039,-38.574,189.941,0.000
1676160119.188,94.727,41.992,-47.852,89.844,0.000
1676160119.192,81.055,60.547,-18.555,38.086,0.000
1676160119.196,113.281,60.059,-7.324,118.164,0.000
1676160119.199,110.352,33.203,-53.711,152.344,0.000
1676160119.203,105.957,40.039,-53.223,119.629,0.000
1676160119.207,81.055,53.223,-27.832,51.758,0.000
1676160119.211,57.617,43.457,-38.574,53.223,0.000
1676160119.215,85.938,35.645,-48.340,138.184,0.000
1676160119.219,127.930,52.734,-19.531,174.316,0.000
1676160119.223,95.215,67.383,0.977,81.543,0.000
1676160119.227,57.617,56.152,-14.160,38.086,0.000
1676160119.231,86.914,39.062,-39.551,119.141,0.000
1676160119.235,112.793,35.156,-46.875,152.344,0.000
1676160119.239,132.324,67.871,0.488,127.930,0.000
1676160119.242,67.871,62.988,-8.789,38.574,0.000
1676160119.246,34.180,31.250,-58.105,47.363,0.000
1676160119.250,116.699,52.734,-32.715,168.457,0.000
1676160119.254,102.051,62.988,-21.973,107.910,0.000
1676160119.258,30.273,53.711,-33.691,-8.789,0.000
1676160119.262,42.480,51.270,-33.691,42.969,0.000
1676160119.266,115.234,57.617,-22.949,176.758,0.000
1676160119.270,131.836,62.988,-11.230,164.062,0.000
1676160119.274,69.336,59.570,-9.277,36.621,0.000
1676160119.278,34.668,47.363,-28.320,27.832,0.000
1676160119.282,89.355,47.363,-31.250,141.113,0.000
1676160119.285,139.160,53.223,-5.371,190.918,0.000
1676160119.289,52.246,36.133,-29.297,54.199,0.000
1676160119.293,0.488,29.785,-48.340,-15.137,0.000
1676160119.297,82.520,44.434,-33.203,109.375,0.000
1676160119.301,125.977,58.594,-37.598,153.809,0.000
1676160119.305,83.496,67.871,-28.320,68.848,0.000
1676160119.309,59.570,74.219,-3.906,31.738,0.000
1676160119.313,75.195,59.082,-17.090,85.449,0.000
1676160119.317,102.051,41.016,-32.715,147.461,0.000
1676160119.321,94.238,46.875,-18.066,115.234,0.000
1676160119.325,23.438,44.922,-23.926,0.977,0.000
1676160119.328,52.246,46.875,-19.043,52.734,0.000
1676160119.332,104.980,49.316,-17.090,159.180,0.000
1676160119.336,46.875,33.691,-47.852,82.520,0.000
1676160119.340,26.367,48.340,-18.555,0.000,0.000
1676160119.344,38.086,53.711,-11.719,10.742,0.000
1676160119.348,58.105,41.016,-35.156,98.145,0.000
1676160119.352,75.684,39.062,-32.715,124.512,0.000
1676160119.356,54.199,49.316,-18.555,32.227,0.000
1676160119.360,18.555,51.758,-13.672,-7.324,0.000
1676160119.364,38.574,42.969,-27.344,75.195,0.000
1676160119.368,71.289,38.574,-31.738,126.953,0.000
1676160119.371,52.734,43.945,-20.508,47.363,0.000
1676160119.375,22.461,48.828,-13.184,-21.973,0.000
1676160119.379,-2.441,22.949,-46.875,-0.488,0.000
1676160119.383,31.250,21.973,-54.199,61.035,0.000
1676160119.387,68.359,54.199,-18.555,62.988,0.000
1676160119.391,11.230,65.430,-16.602,-25.391,0.000
1676160119.395,-16.602,49.316,-34.180,-28.809,0.000
1676160119.399,24.902,40.527,-31.250,65.430,0.000
1676160119.403,30.762,49.805,-13.184,55.176,0.000
1676160119.407,-23.438,62.988,6.836,-57.617,0.000
1676160119.411,-73.242,59.082,-0.488,-97.656,0.000
1676160119.414,-54.688,54.199,-0.488,-33.203,0.000
1676160119.418,-23.438,64.453,38.574,1.953,0.000
1676160119.422,-126.953,53.223,37.598,-138.184,0.000
1676160119.426,-259.766,23.438,-1.953,-304.199,0.000
1676160119.430,-225.586,24.902,19.531,-233.887,0.000
1676160119.434,-195.312,23.438,42.480,-161.621,0.000
1676160119.438,-242.676,20.996,43.945,-249.512,0.000
1676160119.442,-300.781,23.438,29.785,-363.770,0.000
1676160119.446,-270.508,28.809,25.879,-303.223,0.000
1676160119.450,-211.914,29.297,17.578,-195.801,0.000
1676160119.453,-224.609,25.391,0.000,-239.258,0.000
1676160119.457,-258.789,32.715,14.160,-318.848,0.000
1676160119.461,-223.145,38.574,26.367,-260.742,0.000
1676160119.465,-138.672,39.551,22.949,-110.840,0.000
1676160119.469,-154.785,20.020,-14.648,-131.348,0.000
1676160119.473,-199.707,13.672,-22.461,-253.418,0.000
1676160119.477,-159.668,29.785,5.859,-212.891,0.000
1676160119.481,-98.633,19.043,-11.719,-81.055,0.000
1676160119.485,-65.918,5.859,-27.344,-31.738,0.000
1676160119.489,-66.895,20.020,-16.113,-92.285,0.000
1676160119.492,-71.289,26.367,-4.395,-128.418,0.000
1676160119.496,-23.438,13.672,-13.672,-26.855,0.000
1676160119.500,35.156,2.441,-30.762,72.266,0.000
1676160119.504,27.832,5.371,-32.715,24.414,0.000
1676160119.508,21.484,21.973,-9.277,-29.297,0.000
1676160119.512,35.156,12.207,-25.879,13.184,0.000
1676160119.516,41.992,-8.789,-77.637,73.730,0.000
1676160119.520,68.359,5.371,-60.059,81.543,0.000
1676160119.524,58.105,22.949,-26.367,24.414,0.000
1676160119.528,32.715,8.301,-49.316,11.719,0.000
1676160119.531,81.055,0.000,-66.895,107.910,0.000
1676160119.535,135.254,10.742,-48.828,162.598,0.000
1676160119.539,84.473,17.578,-43.457,49.316,0.000
1676160119.543,44.434,14.648,-57.617,-6.836,0.000
1676160119.547,90.820,7.812,-63.477,107.910,0.000
1676160119.551,147.949,13.672,-51.758,188.477,0.000
1676160119.555,139.648,23.926,-39.551,127.930,0.000
1676160119.559,76.660,16.602,-54.199,46.387,0.000
1676160119.563,82.520,3.418,-76.660,97.168,0.000
1676160119.567,166.992,17.090,-55.664,220.703,0.000
1676160119.571,175.293,33.203,-35.156,184.082,0.000
1676160119.574,73.242,15.625,-67.383,20.508,0.000
1676160119.578,76.660,7.812,-76.172,50.293,0.000
1676160119.582,162.598,20.020,-53.711,183.594,0.000
1676160119.586,170.898,30.762,-43.457,180.176,0.000
1676160119.590,104.492,34.180,-45.898,67.383,0.000
1676160119.594,83.008,32.715,-50.293,56.641,0.000
1676160119.598,150.879,36.133,-50.781,175.293,0.000
1676160119.602,190.430,44.434,-41.992,217.285,0.000
1676160119.606,120.117,41.016,-37.598,110.840,0.000
1676160119.610,55.176,26.367,-50.293,25.391,0.000
1676160119.614,139.160,30.273,-22.461,173.340,0.000
1676160119.617,174.316,28.320,-23.438,252.441,0.000
1676160119.621,88.867,23.438,-55.664,102.539,0.000
1676160119.625,74.707,34.668,-37.109,38.086,0.000
1676160119.629,100.586,26.367,-39.551,108.887,0.000
1676160119.633,134.277,21.484,-51.758,181.152,0.000
1676160119.637,128.906,35.156,-42.480,142.578,0.000
1676160119.641,88.867,46.875,-29.297,64.941,0.000
1676160119.645,86.426,38.574,-41.016,88.867,0.000
1676160119.649,124.023,27.832,-55.176,176.270,0.000
1676160119.653,124.512,30.762,-53.223,162.109,0.000
1676160119.657,77.148,39.551,-42.480,58.594,0.000
1676160119.660,90.332,51.270,-23.926,76.660,0.000
1676160119.664,85.449,26.367,-53.223,125.000,0.000
1676160119.668,101.074,24.902,-50.781,139.160,0.000
1676160119.672,106.445,50.293,-13.672,99.121,0.000
1676160119.676,68.848,51.758,-19.531,47.363,0.000
1676160119.680,87.402,41.016,-41.992,93.262,0.000
1676160119.684,129.395,40.039,-39.551,164.062,0.000
1676160119.688,121.582,47.852,-17.090,135.742,0.000
1676160119.692,65.430,44.434,-24.902,30.273,0.000
1676160119.696,74.707,39.062,-41.016,75.684,0.000
1676160119.700,115.723,31.738,-46.387,169.922,0.000
1676160119.703,141.113,51.758,-11.230,174.316,0.000
1676160119.707,94.238,60.547,-3.906,76.172,0.000
1676160119.711,24.902,33.691,-48.828,18.555,0.000
1676160119.715,87.891,36.621,-32.715,145.996,0.000
1676160119.719,117.188,41.992,-20.508,159.668,0.000
1676160119.723,52.734,41.016,-29.297,34.180,0.000
1676160119.727,22.461,36.621,-32.715,2.930,0.000
1676160119.731,75.684,34.668,-33.691,116.211,0.000
1676160119.735,115.234,41.016,-27.832,169.922,0.000
1676160119.739,73.730,45.898,-21.973,66.895,0.000
1676160119.743,39.551,48.828,-18.555,3.906,0.000
1676160119.746,63.477,38.086,-34.668,78.125,0.000
1676160119.750,111.328,41.016,-29.785,170.410,0.000
1676160119.754,64.941,33.203,-43.457,84.961,0.000
1676160119.758,18.555,29.297,-41.016,-18.555,0.000
1676160119.762,60.059,38.086,-19.531,51.758,0.000
1676160119.766,96.191,32.715,-31.250,140.137,0.000
1676160119.770,83.496,28.320,-36.621,105.469,0.000
1676160119.774,31.738,29.785,-30.273,1.953,0.000
1676160119.778,22.461,34.668,-20.996,13.184,0.000
1676160119.782,77.148,39.551,-17.578,130.859,0.000
1676160119.785,84.961,42.480,-24.902,142.090,0.000
1676160119.789,18.066,40.527,-23.438,15.625,0.000
1676160119.793,10.254,53.223,0.000,-13.184,0.000
1676160119.797,32.715,49.805,-4.395,73.730,0.000
1676160119.801,3.418,27.344,-33.203,69.336,0.000
1676160119.805,-26.855,43.945,-9.766,-22.461,0.000
1676160119.809,-70.801,58.105,18.555,-105.957,0.000
1676160119.813,-62.988,56.152,26.367,-54.199,0.000
1676160119.817,-73.730,41.504,12.207,-24.902,0.000
1676160119.821,-122.559,40.039,25.879,-108.887,0.000
1676160119.825,-203.125,45.898,45.410,-241.211,0.000
1676160119.828,-259.766,23.438,30.273,-275.391,0.000
1676160119.832,-232.910,9.766,26.367,-186.523,0.000
1676160119.836,-212.891,22.949,45.410,-180.664,0.000
1676160119.840,-255.371,35.645,43.457,-283.203,0.000
1676160119.844,-338.867,11.719,-13.672,-359.375,0.000
1676160119.848,-303.223,-4.395,-25.391,-272.461,0.000
1676160119.852,-214.844,9.766,3.906,-192.383,0.000
1676160119.856,-255.371,14.160,2.441,-291.992,0.000
1676160119.860,-302.734,11.230,-14.648,-362.305,0.000
1676160119.864,-237.793,16.602,-23.438,-245.605,0.000
1676160119.868,-157.715,30.273,-9.766,-120.605,0.000
1676160119.871,-176.270,30.762,-3.418,-187.500,0.000
1676160119.875,-235.352,22.461,-21.484,-291.992,0.000
1676160119.879,-213.867,13.184,-31.250,-216.309,0.000
1676160119.883,-118.652,21.973,-15.625,-67.383,0.000
1676160119.887,-125.000,24.902,-20.996,-104.004,0.000
1676160119.891,-222.168,12.207,-60.059,-270.996,0.000
1676160119.895,-175.293,16.602,-49.805,-213.867,0.000
1676160119.899,-91.309,18.555,-34.668,-64.453,0.000
1676160119.903,-77.148,19.531,-37.109,-54.688,0.000
1676160119.906,-120.117,25.391,-37.109,-156.738,0.000
1676160119.911,-117.188,30.762,-33.691,-162.109,0.000
1676160119.914,-53.711,24.902,-37.109,-32.715,0.000
1676160119.918,-23.926,20.020,-38.574,14.648,0.000
1676160119.922,-38.086,22.949,-27.832,-55.664,0.000
1676160119.926,-46.387,21.973,-28.320,-83.496,0.000
1676160119.930,3.906,17.090,-45.410,21.973,0.000
1676160119.934,57.617,10.742,-55.664,96.680,0.000
1676160119.938,32.227,5.371,-50.781,25.879,0.000
1676160119.942,15.137,11.230,-26.367,-27.344,0.000
1676160119.946,62.500,7.812,-17.090,65.430,0.000
1676160119.949,80.566,-17.578,-56.641,117.676,0.000
1676160119.953,78.125,-17.090,-61.035,82.031,0.000
1676160119.957,68.359,2.930,-30.762,37.598,0.000
1676160119.961,61.035,-0.488,-41.992,53.223,0.000
1676160119.965,100.586,-3.906,-70.801,136.230,0.000
1676160119.969,150.391,10.254,-52.246,181.641,0.000
1676160119.973,110.840,13.672,-35.156,98.145,0.000
1676160119.977,81.543,6.348,-51.270,53.223,0.000
1676160119.981,120.605,-9.766,-75.684,148.438,0.000
1676160119.985,161.133,-7.324,-72.266,215.332,0.000
1676160119.989,178.223,20.508,-33.203,183.594,0.000
1676160119.992,125.000,15.137,-44.922,96.680,0.000
1676160119.996,103.027,-8.789,-91.309,120.117,0.000
1676160120.000,179.688,-0.488,-77.637,236.328,0.000
1676160120.004,175.293,5.371,-65.430,192.871,0.000
1676160120.008,114.258,5.371,-72.266,83.984,0.000
1676160120.012,112.793,0.977,-83.496,108.887,0.000
1676160120.016,189.941,9.766,-69.824,233.398,0.000
1676160120.020,219.238,24.902,-46.875,242.188,0.000
1676160120.024,153.320,28.809,-46.387,127.930,0.000
1676160120.028,115.234,21.973,-61.523,110.840,0.000
1676160120.032,157.715,13.184,-68.848,212.891,0.000
1676160120.035,212.402,27.344,-41.504,272.949,0.000
1676160120.039,141.113,26.367,-51.758,152.344,0.000
1676160120.043,66.895,7.812,-78.613,59.570,0.000
1676160120.047,133.789,11.230,-59.082,177.734,0.000
1676160120.051,185.059,15.137,-55.664,243.164,0.000
1676160120.055,129.883,16.113,-65.430,139.648,0.000
1676160120.059,79.590,19.043,-58.105,58.105,0.000
1676160120.063,129.883,25.879,-45.898,137.207,0.000
1676160120.067,183.105,32.227,-47.852,219.238,0.000
1676160120.071,151.367,34.180,-45.898,165.527,0.000
1676160120.075,85.449,30.762,-45.410,43.945,0.000
1676160120.078,118.164,40.039,-32.715,101.074,0.000
1676160120.082,158.203,35.156,-38.086,213.867,0.000
1676160120.086,101.562,16.113,-77.148,139.648,0.000
1676160120.090,73.730,34.668,-57.129,50.781,0.000
1676160120.094,83.984,43.945,-40.527,61.035,0.000
1676160120.098,118.652,32.227,-61.035,149.902,0.000
1676160120.102,124.512,25.879,-72.754,168.457,0.000
1676160120.106,102.539,36.621,-47.363,99.121,0.000
1676160120.110,74.707,37.109,-39.551,51.758,0.000
1676160120.114,93.262,24.902,-62.988,123.047,0.000
1676160120.118,144.531,29.785,-59.082,203.613,0.000
1676160120.121,126.465,40.039,-38.574,136.230,0.000
1676160120.125,71.289,36.621,-36.133,51.270,0.000
1676160120.129,54.688,15.137,-63.965,75.684,0.000
1676160120.133,90.820,12.695,-66.406,137.207,0.000
1676160120.137,126.953,35.645,-31.738,141.602,0.000
1676160120.141,89.355,46.387,-20.996,56.641,0.000
1676160120.145,39.062,32.715,-50.293,18.555,0.000
1676160120.149,94.238,36.133,-45.410,122.070,0.000
1676160120.153,138.184,53.711,-22.461,150.879,0.000
1676160120.157,87.402,56.152,-16.602,40.039,0.000
1676160120.161,43.945,44.922,-26.855,2.441,0.000
1676160120.164,84.473,39.062,-35.645,100.586,0.000
1676160120.168,139.648,53.711,-13.672,175.293,0.000
1676160120.172,94.727,52.246,-16.602,74.219,0.000
1676160120.176,6.836,32.715,-55.176,-52.734,0.000
1676160120.180,55.176,39.062,-46.875,51.270,0.000
1676160120.184,116.699,43.457,-35.645,145.996,0.000
1676160120.188,94.238,49.316,-26.367,77.148,0.000
1676160120.192,33.691,44.434,-23.438,-15.137,0.000
1676160120.196,41.992,35.645,-25.879,39.062,0.000
1676160120.200,95.215,35.645,-22.949,136.230,0.000
1676160120.203,83.496,35.645,-24.902,94.238,0.000
1676160120.207,38.574,46.875,-15.625,6.836,0.000
1676160120.211,42.480,44.434,-9.277,35.645,0.000
1676160120.215,76.660,33.203,-24.414,124.512,0.000
1676160120.219,60.547,29.297,-43.457,106.445,0.000
1676160120.223,19.043,36.133,-29.785,-3.418,0.000
1676160120.227,15.137,34.180,-16.113,-14.648,0.000
1676160120.231,58.594,32.715,-18.066,97.656,0.000
1676160120.235,62.988,24.414,-38.086,126.465,0.000
1676160120.239,33.203,25.391,-34.668,31.738,0.000
1676160120.243,23.926,39.062,-12.695,-29.297,0.000
1676160120.246,50.781,33.203,-20.020,46.875,0.000
1676160120.250,86.914,21.973,-29.785,127.441,0.000
1676160120.254,71.289,30.273,-27.832,63.477,0.000
1676160120.258,42.480,49.805,-2.441,-7.324,0.000
1676160120.262,41.016,41.992,-9.277,23.438,0.000
1676160120.266,48.828,26.855,-45.410,73.242,0.000
1676160120.270,44.434,29.785,-33.691,50.293,0.000
1676160120.274,6.348,42.969,-8.789,-46.875,0.000
1676160120.278,-28.809,40.039,-12.207,-69.824,0.000
1676160120.281,-34.668,25.879,-36.621,-11.719,0.000
1676160120.286,-9.277,46.875,-16.113,20.996,0.000
1676160120.289,-56.641,57.129,12.695,-78.613,0.000
1676160120.293,-150.391,34.180,-0.488,-190.430,0.000
1676160120.297,-143.555,23.438,2.930,-129.883,0.000
1676160120.301,-108.887,29.785,36.133,-78.125,0.000
1676160120.305,-148.926,50.781,67.871,-164.062,0.000
1676160120.309,-258.301,47.363,51.270,-308.594,0.000
1676160120.313,-290.527,27.344,29.785,-314.941,0.000
1676160120.317,-200.684,44.434,54.199,-184.570,0.000
1676160120.321,-188.477,63.965,73.242,-187.500,0.000
1676160120.325,-291.992,53.711,46.387,-334.961,0.000
1676160120.328,-300.781,45.410,30.273,-327.637,0.000
1676160120.332,-197.754,49.316,48.828,-170.898,0.000
1676160120.336,-158.203,58.105,50.293,-154.297,0.000
1676160120.340,-245.605,52.246,5.859,-304.199,0.000
1676160120.344,-229.492,62.500,11.230,-283.203,0.000
1676160120.348,-147.461,65.918,17.090,-143.066,0.000
1676160120.352,-112.305,62.988,2.441,-89.355,0.000
1676160120.356,-143.066,63.477,-5.371,-165.527,0.000
1676160120.360,-182.617,51.758,-20.508,-233.887,0.000
1676160120.364,-79.102,59.570,-2.930,-79.102,0.000
1676160120.368,-7.812,57.129,-12.695,23.438,0.000
1676160120.371,-66.406,31.738,-42.480,-85.449,0.000
1676160120.375,-68.848,41.016,-11.230,-116.699,0.000
1676160120.379,-38.086,33.691,-13.184,-37.109,0.000
1676160120.383,13.184,12.207,-29.785,50.781,0.000
1676160120.387,40.039,15.625,-22.461,41.992,0.000
1676160120.391,17.090,15.137,-9.277,-15.625,0.000
1676160120.395,26.367,3.418,-15.625,17.090,0.000
1676160120.399,84.961,0.488,-30.273,121.582,0.000
1676160120.403,99.121,2.930,-36.133,135.254,0.000
1676160120.407,73.730,13.672,-19.531,48.828,0.000
1676160120.410,98.145,28.809,6.836,59.570,0.000
1676160120.414,102.539,7.324,-35.156,121.094,0.000
1676160120.418,129.395,0.488,-50.781,157.715,0.000
1676160120.422,141.113,21.973,-20.020,123.047,0.000
1676160120.426,102.051,21.484,-18.555,70.801,0.000
1676160120.430,120.605,13.184,-35.156,139.160,0.000
1676160120.434,185.059,18.555,-27.832,246.094,0.000
1676160120.438,184.082,22.949,-25.391,205.566,0.000
1676160120.442,120.605,20.020,-47.363,85.449,0.000
1676160120.446,127.930,16.113,-53.711,114.746,0.000
1676160120.450,189.453,20.020,-46.875,218.750,0.000
1676160120.453,215.820,37.109,-19.043,229.980,0.000
1676160120.457,156.738,37.598,-22.461,126.953,0.000
1676160120.461,85.938,15.625,-64.941,65.918,0.000
1676160120.465,153.320,24.414,-53.711,194.336,0.000
1676160120.469,192.383,31.250,-43.457,235.352,0.000
1676160120.473,134.277,26.855,-42.969,116.211,0.000
1676160120.477,92.285,21.484,-44.922,70.312,0.000
1676160120.481,145.508,24.414,-45.898,173.340,0.000
1676160120.485,192.871,32.227,-41.504,232.910,0.000
1676160120.489,144.531,27.832,-39.551,135.254,0.000
1676160120.493,92.285,25.391,-42.480,55.176,0.000
1676160120.496,117.676,23.926,-43.945,119.629,0.000
1676160120.500,185.059,29.785,-31.738,232.910,0.000
1676160120.504,146.484,23.926,-51.758,159.180,0.000
1676160120.508,74.219,18.555,-64.941,28.809,0.000
1676160120.512,108.398,28.320,-44.922,95.215,0.000
1676160120.516,158.691,26.855,-46.875,207.031,0.000
1676160120.520,141.113,21.973,-56.152,177.734,0.000
1676160120.524,103.516,33.691,-35.156,86.426,0.000
1676160120.528,98.633,37.109,-22.949,86.914,0.000
1676160120.532,135.742,30.762,-33.203,177.246,0.000
1676160120.535,150.879,31.738,-38.574,195.312,0.000
1676160120.539,107.910,36.621,-30.762,92.773,0.000
1676160120.543,105.957,50.293,-3.418,76.660,0.000
1676160120.547,118.164,37.109,-24.902,156.738,0.000
1676160120.551,86.426,11.719,-67.383,139.160,0.000
1676160120.555,83.496,27.344,-41.504,84.961,0.000
1676160120.559,63.477,32.715,-26.855,42.969,0.000
1676160120.563,55.664,24.414,-47.363,76.172,0.000
1676160120.567,87.402,20.020,-56.152,143.066,0.000
1676160120.571,108.887,33.691,-31.738,128.906,0.000
1676160120.575,64.941,36.133,-30.762,33.691,0.000
1676160120.579,42.480,22.949,-48.340,34.668,0.000
1676160120.582,91.309,25.879,-45.898,138.184,0.000
1676160120.586,122.559,41.504,-24.902,157.227,0.000
1676160120.590,88.867,50.293,-5.859,78.125,0.000
1676160120.594,9.766,24.902,-41.992,-6.348,0.000
1676160120.598,33.691,24.414,-58.105,41.016,0.000
1676160120.602,93.262,41.992,-32.227,99.121,0.000
1676160120.606,33.203,41.992,-32.227,-1.953,0.000
1676160120.610,-33.203,41.504,-39.062,-83.008,0.000
1676160120.614,-9.277,38.086,-38.086,-15.137,0.000
1676160120.618,29.785,43.945,-17.090,54.199,0.000
1676160120.621,-11.230,50.781,-8.789,-19.043,0.000
1676160120.625,-72.266,53.711,-4.395,-116.699,0.000
1676160120.629,-86.914,44.434,-5.371,-98.145,0.000
1676160120.633,-41.016,50.781,12.695,-14.160,0.000
1676160120.637,-72.266,50.293,27.344,-68.359,0.000
1676160120.641,-192.383,33.691,12.695,-243.652,0.000
1676160120.645,-215.820,33.203,15.625,-258.301,0.000
1676160120.649,-146.973,46.387,44.922,-116.211,0.000
1676160120.653,-152.344,40.527,53.223,-117.676,0.000
1676160120.657,-245.117,16.113,38.086,-270.020,0.000
1676160120.661,-270.508,11.719,40.527,-297.363,0.000
1676160120.665,-238.770,7.324,16.602,-217.773,0.000
1676160120.668,-201.172,14.648,13.184,-168.945,0.000
1676160120.672,-226.562,30.273,22.461,-252.930,0.000
1676160120.676,-246.094,33.691,33.691,-308.105,0.000
1676160120.680,-193.359,30.273,36.621,-206.055,0.000
1676160120.684,-155.762,20.020,15.625,-120.605,0.000
1676160120.688,-166.504,30.762,13.184,-178.711,0.000
1676160120.692,-188.965,44.922,29.785,-255.859,0.000
1676160120.696,-173.340,39.551,20.020,-199.707,0.000
1676160120.700,-149.414,23.926,-15.625,-120.605,0.000
1676160120.703,-133.789,26.367,-16.602,-133.301,0.000
1676160120.708,-151.855,40.039,6.348,-208.496,0.000
1676160120.711,-165.039,30.273,0.000,-202.637,0.000
1676160120.715,-109.375,23.926,-18.066,-88.379,0.000
1676160120.719,-59.082,35.645,-10.254,-43.945,0.000
1676160120.723,-94.238,38.086,-8.789,-135.254,0.000
1676160120.727,-116.699,34.180,-16.602,-168.457,0.000
1676160120.731,-86.426,16.602,-37.598,-77.637,0.000
1676160120.735,-37.109,9.766,-42.480,-4.883,0.000
1676160120.739,-10.254,28.809,-19.043,-36.133,0.000
1676160120.743,-62.012,23.438,-39.062,-121.582,0.000
1676160120.747,-36.133,13.184,-60.059,-49.805,0.000
1676160120.750,46.875,16.113,-57.129,76.660,0.000
1676160120.754,93.262,32.227,-22.949,96.191,0.000
1676160120.758,36.621,16.602,-41.504,-24.414,0.000
1676160120.762,-2.930,-14.648,-87.402,-35.156,0.000
1676160120.766,94.238,-0.488,-58.594,126.953,0.000
1676160120.770,143.066,15.137,-40.039,150.879,0.000
1676160120.774,88.867,13.184,-39.551,57.129,0.000
1676160120.778,68.848,1.953,-61.035,45.410,0.000
1676160120.782,127.930,-7.324,-70.801,159.180,0.000
1676160120.786,193.359,7.812,-42.480,241.211,0.000
1676160120.789,133.789,4.395,-57.129,122.559,0.000
1676160120.793,80.078,-2.930,-73.242,51.270,0.000
1676160120.797,154.785,6.348,-51.758,181.641,0.000
1676160120.801,214.355,9.277,-45.410,259.766,0.000
1676160120.805,177.246,8.301,-55.176,179.199,0.000
1676160120.809,126.465,13.672,-57.129,95.703,0.000
1676160120.813,163.574,19.043,-54.688,171.875,0.000
1676160120.817,224.121,20.508,-54.199,274.414,0.000
1676160120.821,213.379,27.832,-47.363,237.793,0.000
1676160120.825,149.414,21.973,-55.664,136.719,0.000
1676160120.829,171.387,21.973,-42.480,194.336,0.000
1676160120.832,223.633,20.020,-49.805,287.598,0.000
1676160120.836,191.406,9.277,-83.984,223.145,0.000
1676160120.840,171.875,31.250,-51.270,159.668,0.000
1676160120.844,155.762,32.715,-45.898,140.625,0.000
1676160120.848,173.340,22.461,-66.895,208.008,0.000
1676160120.852,205.566,32.715,-62.988,260.742,0.000
1676160120.856,187.500,47.363,-40.527,188.965,0.000
1676160120.860,145.508,44.922,-41.504,112.305,0.000
1676160120.864,159.180,29.297,-59.570,172.363,0.000
1676160120.868,205.566,27.832,-55.664,255.371,0.000
1676160120.872,185.059,37.109,-49.805,195.312,0.000
1676160120.875,139.648,44.922,-37.109,124.512,0.000
1676160120.879,107.910,26.367,-68.359,128.906,0.000
1676160120.883,151.367,21.973,-65.918,206.543,0.000
1676160120.887,180.664,39.551,-35.645,217.285,0.000
1676160120.891,112.305,46.387,-47.852,98.633,0.000
1676160120.895,76.660,35.156,-59.570,83.008,0.000
1676160120.899,127.441,26.855,-57.129,192.871,0.000
1676160120.903,173.828,38.086,-38.574,234.863,0.000
1676160120.907,131.836,44.434,-30.762,141.602,0.000
1676160120.911,72.754,28.809,-54.688,76.660,0.000
1676160120.915,114.746,19.531,-60.547,170.898,0.000
1676160120.918,191.895,37.598,-25.391,271.484,0.000
1676160120.922,147.461,40.527,-19.043,171.875,0.000
1676160120.926,35.645,18.555,-60.547,15.625,0.000
1676160120.930,77.637,19.531,-51.758,105.957,0.000
1676160120.934,135.254,27.344,-36.621,208.496,0.000
1676160120.938,111.328,36.133,-30.273,149.414,0.000
1676160120.942,51.758,35.156,-34.180,31.738,0.000
1676160120.946,48.828,25.879,-43.457,58.594,0.000
1676160120.950,107.910,25.391,-44.922,164.062,0.000
1676160120.954,100.098,26.367,-46.387,131.836,0.000
1676160120.957,53.711,31.250,-34.668,32.715,0.000
1676160120.961,51.270,33.691,-24.902,46.387,0.000
1676160120.965,108.398,34.668,-23.926,177.734,0.000
1676160120.969,97.656,21.973,-52.246,157.227,0.000
1676160120.973,36.133,20.020,-58.594,22.949,0.000
1676160120.977,32.227,32.715,-31.738,8.789,0.000
1676160120.981,66.406,28.320,-37.109,99.609,0.000
1676160120.985,91.309,21.973,-52.734,148.438,0.000
1676160120.989,67.383,27.344,-41.992,74.219,0.000
1676160120.993,34.180,36.133,-23.926,4.395,0.000
1676160120.997,52.734,34.180,-32.227,56.152,0.000
1676160121.000,91.797,24.414,-42.969,139.648,0.000
1676160121.004,73.242,20.996,-40.527,91.309,0.000
1676160121.008,51.758,42.480,-9.277,20.996,0.000
1676160121.012,57.617,43.457,-9.766,50.781,0.000
1676160121.016,45.410,15.137,-59.570,88.867,0.000
1676160121.020,72.266,25.879,-42.480,107.422,0.000
1676160121.024,53.223,42.480,-16.113,35.645,0.000
1676160121.028,8.301,33.691,-30.273,-7.812,0.000
1676160121.032,42.480,19.531,-44.434,79.590,0.000
1676160121.036,98.633,27.832,-34.668,130.371,0.000
1676160121.040,66.895,36.621,-23.926,41.504,0.000
1676160121.043,13.184,26.367,-34.180,-28.809,0.000
1676160121.047,38.086,19.531,-39.062,48.340,0.000
1676160121.051,93.262,25.391,-27.344,139.648,0.000
1676160121.055,83.008,35.156,-15.625,83.496,0.000
1676160121.059,12.695,33.203,-20.508,-25.391,0.000
1676160121.063,-7.324,13.184,-46.875,-13.672,0.000
1676160121.067,66.895,15.137,-37.598,104.492,0.000
1676160121.071,87.402,31.250,-13.184,115.234,0.000
1676160121.075,-7.324,20.020,-35.156,-25.879,0.000
1676160121.079,-20.996,12.695,-44.434,-28.320,0.000
1676160121.083,55.664,15.625,-30.273,98.633,0.000
1676160121.086,78.613,21.973,-24.902,119.629,0.000
1676160121.090,12.695,24.414,-37.598,-6.836,0.000
1676160121.094,-4.883,25.879,-28.809,-31.250,0.000
1676160121.098,49.316,32.227,-25.879,79.102,0.000
1676160121.102,71.777,29.785,-32.227,113.770,0.000
1676160121.106,7.812,24.902,-27.344,-3.906,0.000
1676160121.110,-53.223,26.367,-30.273,-97.656,0.000
1676160121.114,12.207,35.156,-4.395,15.137,0.000
1676160121.118,21.484,32.715,-1.953,80.078,0.000
1676160121.122,-76.172,28.320,-25.879,-55.664,0.000
1676160121.125,-110.840,44.434,7.812,-149.902,0.000
1676160121.129,-115.723,43.457,18.555,-118.164,0.000
1676160121.133,-104.004,39.551,13.184,-54.199,0.000
1676160121.137,-125.000,41.504,35.156,-108.887,0.000
1676160121.141,-188.965,38.086,56.641,-227.539,0.000
1676160121.145,-225.586,37.598,61.523,-246.582,0.000
1676160121.149,-213.867,37.109,51.270,-190.918,0.000
1676160121.153,-234.375,27.832,33.691,-210.938,0.000
1676160121.157,-285.645,30.273,43.945,-312.988,0.000
1676160121.161,-275.879,48.340,72.754,-310.547,0.000
1676160121.165,-273.438,30.273,32.227,-271.973,0.000
1676160121.168,-264.160,24.414,2.441,-250.000,0.000
1676160121.172,-243.164,50.781,27.344,-268.555,0.000
1676160121.176,-271.973,50.293,26.855,-334.473,0.000
1676160121.180,-274.414,37.109,-5.371,-293.945,0.000
1676160121.184,-198.730,47.852,0.977,-193.848,0.000
1676160121.188,-163.574,65.918,32.227,-185.547,0.000
1676160121.192,-224.609,56.641,18.555,-280.762,0.000
1676160121.196,-217.285,42.969,4.883,-259.277,0.000
1676160121.200,-165.527,35.645,-5.371,-161.621,0.000
1676160121.204,-113.770,52.246,13.184,-117.188,0.000
1676160121.208,-150.391,54.688,21.484,-196.777,0.000
1676160121.211,-220.703,29.297,-37.109,-272.461,0.000
1676160121.215,-136.230,39.551,-45.898,-133.301,0.000
1676160121.219,-68.848,51.270,-18.555,-45.898,0.000
1676160121.223,-106.934,47.852,-15.625,-144.531,0.000
1676160121.227,-143.066,42.969,-30.273,-201.660,0.000
1676160121.231,-76.172,38.086,-25.879,-73.242,0.000
1676160121.235,-10.254,30.762,-21.484,15.137,0.000
1676160121.239,-16.602,34.668,-19.043,-31.738,0.000
1676160121.243,-38.086,33.691,-13.184,-76.660,0.000
1676160121.247,-17.578,18.066,-25.391,-23.926,0.000
1676160121.250,59.082,11.719,-18.555,91.797,0.000
1676160121.254,47.852,-1.953,-30.273,41.504,0.000
1676160121.258,-4.883,-5.371,-43.945,-59.082,0.000
1676160121.262,32.227,1.465,-27.832,22.461,0.000
1676160121.266,94.727,-6.836,-32.227,125.000,0.000
1676160121.270,95.215,-15.625,-40.039,111.328,0.000
1676160121.274,67.871,-8.301,-34.180,34.180,0.000
1676160121.278,86.426,0.488,-28.809,41.992,0.000
1676160121.282,127.441,-0.488,-35.645,145.020,0.000
1676160121.286,142.578,-6.348,-43.945,156.738,0.000
1676160121.290,123.047,-2.930,-28.320,74.219,0.000
1676160121.293,121.094,11.719,-7.812,73.242,0.000
1676160121.297,129.883,-1.953,-31.250,140.625,0.000
1676160121.301,130.859,-21.484,-65.918,158.203,0.000
1676160121.305,154.297,10.254,-33.203,141.113,0.000
1676160121.309,124.512,17.090,-25.879,78.613,0.000
1676160121.313,122.070,-1.953,-52.734,110.352,0.000
1676160121.317,168.945,-15.625,-60.059,198.242,0.000
1676160121.321,175.781,-13.672,-46.387,192.383,0.000
1676160121.325,136.230,8.301,-39.551,114.258,0.000
1676160121.329,115.234,11.230,-56.152,117.676,0.000
1676160121.333,173.340,12.207,-52.246,223.633,0.000
1676160121.336,210.938,20.996,-38.574,243.652,0.000
1676160121.340,169.434,26.367,-24.414,164.062,0.000
1676160121.344,101.562,11.230,-54.199,88.379,0.000
1676160121.348,120.605,-5.859,-79.102,149.414,0.000
1676160121.352,187.012,7.324,-59.082,222.168,0.000
1676160121.356,144.043,16.602,-54.688,141.602,0.000
1676160121.360,82.031,8.789,-64.453,60.059,0.000
1676160121.364,115.723,8.301,-66.406,126.465,0.000
1676160121.368,179.688,15.625,-57.129,228.027,0.000
1676160121.372,166.992,23.926,-49.316,183.105,0.000
1676160121.375,114.746,23.926,-49.805,88.867,0.000
1676160121.379,124.512,17.090,-59.570,122.559,0.000
1676160121.383,214.844,36.621,-33.691,259.277,0.000
1676160121.387,231.934,46.387,-19.043,252.441,0.000
1676160121.391,131.348,32.227,-50.293,101.562,0.000
1676160121.395,105.469,33.691,-60.547,89.844,0.000
1676160121.399,184.570,46.875,-41.016,223.145,0.000
1676160121.403,199.219,44.434,-41.504,240.723,0.000
1676160121.407,126.465,41.016,-47.363,101.562,0.000
1676160121.411,104.980,41.504,-34.668,63.965,0.000
1676160121.415,142.090,35.156,-43.945,152.344,0.000
1676160121.419,154.297,29.297,-58.594,180.664,0.000
1676160121.422,112.305,31.250,-49.316,102.539,0.000
1676160121.426,83.008,32.715,-35.645,49.805,0.000
1676160121.430,118.164,32.227,-31.738,129.883,0.000
1676160121.434,152.832,24.902,-41.992,201.660,0.000
1676160121.438,132.324,23.926,-48.340,139.648,0.000
1676160121.442,104.980,45.898,-16.113,73.730,0.000
1676160121.446,115.723,43.945,-4.883,127.441,0.000
1676160121.450,123.047,19.043,-50.781,176.270,0.000
1676160121.454,131.348,25.391,-47.363,160.156,0.000
1676160121.458,111.328,43.457,-12.695,93.750,0.000
1676160121.462,90.820,42.480,-12.207,78.125,0.000
1676160121.465,106.934,30.273,-36.133,144.531,0.000
1676160121.469,146.973,39.551,-25.391,201.172,0.000
1676160121.473,127.930,58.105,0.977,136.719,0.000
1676160121.477,85.938,63.477,4.395,70.801,0.000
1676160121.481,94.727,49.805,-20.020,125.977,0.000
1676160121.485,111.328,37.598,-41.992,168.945,0.000
1676160121.489,142.578,62.988,3.906,164.551,0.000
1676160121.493,86.914,61.035,0.000,73.730,0.000
1676160121.497,43.945,36.621,-44.434,57.129,0.000
1676160121.500,137.695,52.734,-12.695,195.801,0.000
1676160121.505,126.465,51.270,-14.160,163.574,0.000
1676160121.508,42.480,49.316,-24.414,23.926,0.000
1676160121.512,34.180,46.875,-23.438,28.320,0.000
1676160121.516,96.191,40.527,-20.996,146.484,0.000
1676160121.520,131.348,50.781,-4.883,171.387,0.000
1676160121.524,80.078,57.129,-0.977,64.941,0.000
1676160121.528,33.203,49.805,-21.973,2.930,0.000
1676160121.532,78.613,41.504,-26.367,98.145,0.000
1676160121.536,135.254,45.898,-9.277,177.246,0.000
1676160121.540,63.477,41.016,-29.785,44.922,0.000
1676160121.543,2.930,34.180,-43.945,-45.898,0.000
1676160121.547,67.383,42.969,-16.113,82.520,0.000
1676160121.551,119.629,46.875,-13.184,166.992,0.000
1676160121.555,74.219,37.598,-36.133,72.754,0.000
1676160121.559,32.227,42.969,-21.973,-2.930,0.000
1676160121.563,43.945,37.109,-23.926,48.340,0.000
1676160121.567,89.844,28.809,-33.203,143.555,0.000
1676160121.571,104.980,37.109,-18.555,136.230,0.000
1676160121.575,29.785,35.156,-22.949,3.906,0.000
1676160121.579,43.457,41.016,-6.348,45.410,0.000
1676160121.583,105.957,41.016,-2.930,173.340,0.000
1676160121.586,66.406,28.809,-37.598,122.559,0.000
1676160121.590,37.109,42.480,-19.531,31.738,0.000
1676160121.594,20.020,42.480,-12.207,-3.906,0.000
1676160121.598,43.945,31.250,-27.832,78.125,0.000
1676160121.602,77.148,27.832,-29.785,125.977,0.000
1676160121.606,66.406,41.016,-14.648,51.758,0.000
1676160121.610,21.484,41.016,-11.719,-21.484,0.000
1676160121.614,25.391,23.438,-24.414,41.992,0.000
1676160121.618,85.938,20.996,-22.461,130.371,0.000
1676160121.622,75.684,26.367,-16.113,82.031,0.000
1676160121.626,20.996,33.691,-10.742,-1.953,0.000
1676160121.629,-15.625,15.625,-42.969,-20.020,0.000
1676160121.633,6.348,0.977,-65.918,45.410,0.000
1676160121.637,47.852,13.672,-32.715,76.660,0.000
1676160121.641,10.742,21.973,-20.996,-22.461,0.000
1676160121.645,-25.879,10.254,-44.922,-53.223,0.000
1676160121.649,12.207,-0.977,-53.711,42.969,0.000
1676160121.653,60.547,7.324,-37.109,89.355,0.000
1676160121.657,25.391,20.996,-24.414,-0.977,0.000
1676160121.661,-53.223,0.977,-47.852,-93.262,0.000
1676160121.665,-24.902,-10.254,-62.500,-5.371,0.000
1676160121.669,64.453,15.137,-36.133,109.863,0.000
1676160121.672,2.441,10.742,-36.133,1.465,0.000
1676160121.676,-133.789,-7.324,-79.102,-171.387,0.000
1676160121.680,-105.469,0.488,-75.195,-119.629,0.000
1676160121.684,-45.410,10.254,-48.828,-15.137,0.000
1676160121.688,-94.727,5.859,-46.875,-85.938,0.000
1676160121.692,-182.617,1.953,-43.945,-235.352,0.000
1676160121.696,-189.941,14.160,-21.973,-228.027,0.000
1676160121.700,-172.852,5.859,-20.996,-145.996,0.000
1676160121.704,-222.656,-10.742,-24.414,-200.195,0.000
1676160121.708,-313.965,-16.113,-5.371,-356.445,0.000
1676160121.711,-344.238,-16.602,2.930,-388.184,0.000
1676160121.715,-294.922,-13.184,4.883,-268.555,0.000
1676160121.719,-324.219,-35.156,-24.414,-281.250,0.000
1676160121.723,-385.254,-39.062,-36.621,-409.668,0.000
1676160121.727,-381.348,-19.531,-11.230,-419.922,0.000
1676160121.731,-351.562,-24.414,-27.832,-332.031,0.000
1676160121.735,-310.547,-33.203,-53.223,-272.949,0.000
1676160121.739,-301.758,-23.926,-42.480,-312.012,0.000
1676160121.743,-320.312,-13.184,-26.367,-368.164,0.000
1676160121.747,-302.734,-14.160,-43.457,-312.988,0.000
1676160121.751,-234.863,-13.672,-52.734,-207.031,0.000
1676160121.754,-211.914,-10.254,-44.922,-214.355,0.000
1676160121.758,-233.398,6.348,-26.855,-282.715,0.000
1676160121.762,-241.211,-1.465,-30.273,-272.461,0.000
1676160121.766,-224.121,-26.855,-63.965,-208.984,0.000
1676160121.770,-164.551,-2.930,-52.246,-158.691,0.000
1676160121.774,-163.574,24.902,-32.715,-214.844,0.000
1676160121.778,-192.871,13.672,-45.898,-250.000,0.000
1676160121.782,-130.371,2.441,-59.570,-135.742,0.000
1676160121.786,-51.270,7.324,-55.176,-37.109,0.000
1676160121.790,-80.078,11.230,-51.758,-109.863,0.000
1676160121.794,-122.070,2.441,-56.641,-177.734,0.000
1676160121.797,-70.801,-9.277,-62.988,-72.754,0.000
1676160121.801,5.371,-12.207,-54.199,45.410,0.000
1676160121.805,31.738,0.000,-39.551,23.926,0.000
1676160121.809,-27.832,-4.395,-51.270,-74.219,0.000
1676160121.813,-42.480,-23.438,-68.848,-42.480,0.000
1676160121.817,71.777,-11.230,-61.523,100.098,0.000
1676160121.821,108.887,-4.883,-42.480,114.258,0.000
1676160121.825,18.066,-21.973,-55.176,-22.461,0.000
1676160121.829,7.812,-32.227,-69.336,-25.391,0.000
1676160121.833,93.262,-29.297,-58.105,119.629,0.000
1676160121.837,131.836,-18.066,-51.758,163.086,0.000
1676160121.840,80.566,-10.254,-53.711,66.406,0.000
1676160121.844,66.895,-7.324,-48.828,36.133,0.000
1676160121.848,128.906,-5.859,-48.340,145.508,0.000
1676160121.852,173.828,6.348,-49.316,215.332,0.000
1676160121.856,141.113,10.254,-59.082,125.977,0.000
1676160121.860,85.449,6.836,-71.777,41.016,0.000
1676160121.864,160.645,18.066,-41.016,174.316,0.000
1676160121.868,204.590,6.348,-45.898,264.648,0.000
1676160121.872,137.207,-7.812,-81.543,158.203,0.000
1676160121.875,107.910,12.695,-62.012,82.520,0.000
1676160121.880,119.141,11.230,-65.918,110.352,0.000
1676160121.883,165.527,0.488,-80.078,195.801,0.000
1676160121.887,179.199,10.254,-67.383,207.520,0.000
1676160121.891,145.020,21.484,-50.781,128.906,0.000
1676160121.895,138.184,20.020,-45.410,126.465,0.000
1676160121.899,179.199,16.602,-53.223,219.238,0.000
1676160121.903,189.941,15.137,-63.477,229.980,0.000
1676160121.907,151.855,22.461,-55.176,138.184,0.000
1676160121.911,137.207,27.832,-36.133,115.234,0.000
1676160121.915,121.094,10.254,-72.266,155.273,0.000
1676160121.918,154.297,9.277,-79.102,197.266,0.000
1676160121.922,176.270,29.297,-43.945,159.180,0.000
1676160121.926,119.141,29.297,-48.828,64.453,0.000
1676160121.930,107.910,17.090,-62.988,97.656,0.000
1676160121.934,162.598,14.648,-59.082,192.383,0.000
1676160121.938,176.270,29.785,-40.039,178.223,0.000
1676160121.942,114.258,36.133,-39.551,70.801,0.000
1676160121.946,108.887,26.855,-49.316,84.473,0.000
1676160121.950,149.414,28.320,-52.734,194.824,0.000
1676160121.954,179.688,41.992,-28.809,220.215,0.000
1676160121.958,120.117,33.691,-33.691,100.586,0.000
1676160121.961,40.527,11.230,-78.613,14.160,0.000
1676160121.965,107.910,16.602,-62.012,132.812,0.000
1676160121.969,152.344,21.973,-45.410,192.383,0.000
1676160121.973,101.562,27.344,-42.480,94.727,0.000
1676160121.977,60.059,27.832,-46.387,26.367,0.000
1676160121.981,98.145,25.879,-51.270,112.305,0.000
1676160121.985,139.160,23.438,-48.340,185.547,0.000
1676160121.989,107.422,25.391,-45.898,108.887,0.000
1676160121.993,61.035,34.668,-35.156,26.367,0.000
1676160121.997,72.266,31.250,-38.574,75.684,0.000
1676160122.001,133.789,27.832,-41.504,186.035,0.000
1676160122.004,102.539,17.578,-61.523,130.371,0.000
1676160122.008,40.039,26.367,-54.199,12.207,0.000
1676160122.012,52.246,37.598,-28.320,50.293,0.000
1676160122.016,87.891,29.297,-37.109,144.043,0.000
1676160122.020,99.609,24.414,-45.898,133.789,0.000
1676160122.024,57.129,26.367,-43.457,20.996,0.000
1676160122.028,36.621,29.297,-34.180,9.766,0.000
1676160122.032,72.754,26.367,-40.039,116.699,0.000
1676160122.036,91.309,24.414,-49.316,152.832,0.000
1676160122.040,61.523,30.762,-36.621,71.289,0.000
1676160122.043,45.410,43.457,-14.648,27.832,0.000
1676160122.047,58.594,38.086,-27.832,87.402,0.000
1676160122.051,60.547,19.043,-62.988,108.887,0.000
1676160122.055,70.801,29.297,-39.551,77.637,0.000
1676160122.059,39.551,38.086,-24.902,5.859,0.000
1676160122.063,37.109,32.227,-35.645,32.227,0.000
1676160122.067,71.777,24.414,-46.875,114.258,0.000
1676160122.071,81.055,26.367,-43.457,105.957,0.000
1676160122.075,47.363,35.645,-26.367,17.578,0.000
1676160122.079,17.578,24.902,-42.480,-3.906,0.000
1676160122.083,60.059,22.949,-44.922,93.750,0.000
1676160122.086,106.934,36.133,-22.461,139.160,0.000
1676160122.090,85.449,52.734,0.000,70.312,0.000
1676160122.094,11.230,40.527,-22.949,-18.066,0.000
1676160122.098,20.020,18.555,-52.246,42.969,0.000
1676160122.102,90.332,29.785,-33.691,137.207,0.000
1676160122.106,60.547,39.551,-20.020,62.988,0.000
1676160122.110,-13.184,35.645,-34.180,-42.480,0.000
1676160122.114,9.277,29.785,-40.527,9.766,0.000
1676160122.118,79.590,43.457,-24.414,125.000,0.000
1676160122.122,70.801,58.594,-9.277,94.238,0.000
1676160122.126,-7.324,45.898,-6.836,-33.691,0.000
1676160122.129,-39.551,30.273,-18.555,-44.434,0.000
1676160122.133,30.273,48.340,0.488,77.637,0.000
1676160122.137,38.574,64.453,12.695,83.008,0.000
1676160122.141,-107.422,39.551,-19.043,-117.676,0.000
1676160122.145,-151.855,39.551,-6.348,-163.574,0.000
1676160122.149,-103.516,40.527,6.348,-62.012,0.000
1676160122.153,-120.605,23.926,-2.441,-81.055,0.000
1676160122.157,-220.215,17.578,6.348,-228.516,0.000
1676160122.161,-285.645,19.043,24.414,-314.941,0.000
1676160122.165,-282.715,14.160,18.066,-268.066,0.000
1676160122.169,-283.691,3.906,0.488,-243.652,0.000
1676160122.172,-304.199,10.254,4.395,-318.848,0.000
1676160122.176,-336.914,21.973,7.324,-383.789,0.000
1676160122.180,-318.848,12.207,0.488,-318.848,0.000
1676160122.184,-272.949,-4.395,-9.766,-229.492,0.000
1676160122.188,-282.715,-10.742,-28.809,-268.066,0.000
1676160122.192,-310.547,-3.906,-27.832,-351.074,0.000
1676160122.196,-286.621,-0.977,-28.320,-301.758,0.000
1676160122.200,-265.625,-25.391,-75.195,-221.191,0.000
1676160122.204,-244.141,-37.598,-85.449,-211.914,0.000
1676160122.208,-255.859,-41.504,-74.219,-276.855,0.000
1676160122.212,-285.645,-56.152,-101.074,-315.918,0.000
1676160122.215,-252.441,-69.336,-130.859,-234.863,0.000
1676160122.219,-178.223,-72.754,-123.047,-138.184,0.000
1676160122.223,-187.988,-84.473,-113.770,-185.547,0.000
1676160122.227,-232.910,-102.539,-134.766,-272.949,0.000
1676160122.231,-200.684,-117.188,-166.504,-202.637,0.000
1676160122.235,-128.418,-123.535,-168.945,-95.703,0.000
1676160122.239,-82.520,-119.141,-132.324,-82.031,0.000
1676160122.243,-126.953,-125.977,-142.090,-158.203,0.000
1676160122.247,-159.180,-148.926,-187.012,-165.527,0.000
1676160122.251,-64.941,-144.043,-164.062,-20.508,0.000
1676160122.255,-30.273,-136.230,-158.691,-9.277,0.000
1676160122.258,-87.402,-135.742,-174.805,-127.441,0.000
1676160122.262,-95.215,-139.648,-178.223,-125.488,0.000
1676160122.266,-15.137,-134.766,-169.434,10.742,0.000
1676160122.270,26.855,-123.047,-160.645,48.340,0.000
1676160122.274,-11.719,-111.816,-155.273,-43.457,0.000
1676160122.278,-46.387,-117.676,-164.062,-83.984,0.000
1676160122.282,4.883,-118.652,-169.922,23.926,0.000
1676160122.286,88.867,-95.703,-136.230,145.020,0.000
1676160122.290,42.480,-91.797,-140.137,51.758,0.000
1676160122.294,-23.926,-98.145,-160.645,-56.152,0.000
1676160122.297,27.832,-91.309,-147.461,41.016,0.000
1676160122.301,87.891,-86.426,-141.602,145.508,0.000
1676160122.305,77.637,-84.961,-145.020,95.703,0.000
1676160122.309,40.039,-70.312,-138.672,-10.742,0.000
1676160122.313,62.012,-58.594,-123.047,32.715,0.000
1676160122.317,109.375,-63.477,-124.512,141.602,0.000
1676160122.321,114.258,-59.570,-121.582,128.906,0.000
1676160122.325,47.363,-54.199,-121.582,10.742,0.000
1676160122.329,50.781,-41.504,-105.469,32.715,0.000
1676160122.333,105.469,-40.039,-101.562,151.367,0.000
1676160122.337,79.102,-56.641,-136.230,112.305,0.000
1676160122.340,71.777,-37.598,-108.887,44.434,0.000
1676160122.344,73.242,-20.996,-85.449,29.297,0.000
1676160122.348,90.332,-28.320,-97.656,105.957,0.000
1676160122.352,108.887,-32.715,-108.887,152.344,0.000
1676160122.356,104.492,-9.277,-89.844,93.750,0.000
1676160122.360,72.754,0.977,-78.125,20.508,0.000
1676160122.364,79.590,-9.277,-88.867,70.312,0.000
1676160122.368,130.371,-10.254,-84.961,158.691,0.000
1676160122.372,127.441,-5.371,-77.637,124.023,0.000
1676160122.376,99.121,7.324,-54.688,58.105,0.000
1676160122.380,70.312,-10.742,-75.195,52.734,0.000
1676160122.383,89.355,-25.391,-95.215,116.699,0.000
1676160122.387,136.230,-0.977,-63.965,139.648,0.000
1676160122.391,97.656,11.230,-51.758,44.922,0.000
1676160122.395,47.363,-5.371,-76.172,-5.371,0.000
1676160122.399,91.309,-5.859,-74.219,96.680,0.000
1676160122.403,135.742,9.277,-44.922,173.828,0.000
1676160122.407,86.914,12.207,-37.598,71.777,0.000
1676160122.411,25.391,1.953,-50.781,-25.879,0.000
1676160122.415,45.898,-8.301,-58.594,46.387,0.000
1676160122.419,111.328,3.418,-36.621,142.090,0.000
1676160122.422,82.031,10.254,-36.133,67.871,0.000
1676160122.426,-14.648,3.906,-61.035,-64.941,0.000
1676160122.430,8.789,13.672,-56.641,-6.348,0.000
1676160122.434,71.777,19.043,-52.734,101.562,0.000
1676160122.438,51.758,20.020,-46.387,57.617,0.000
1676160122.442,-10.254,27.344,-44.922,-57.129,0.000
1676160122.446,-12.207,38.574,-38.086,-34.180,0.000
1676160122.450,20.508,35.156,-36.621,43.457,0.000
1676160122.454,10.742,43.457,-37.598,20.996,0.000
1676160122.458,-48.828,49.805,-20.508,-91.309,0.000
1676160122.462,-95.215,40.039,-12.207,-137.695,0.000
1676160122.465,-52.246,53.711,6.348,-39.062,0.000
1676160122.469,-73.730,49.316,-9.766,-59.082,0.000
1676160122.473,-157.715,43.457,-16.113,-191.895,0.000
1676160122.477,-189.453,47.363,13.184,-251.465,0.000
1676160122.481,-199.219,39.551,2.930,-209.473,0.000
1676160122.485,-199.219,37.109,3.906,-162.598,0.000
1676160122.489,-226.074,33.203,20.996,-221.191,0.000
1676160122.493,-251.953,41.016,36.133,-273.926,0.000
1676160122.497,-233.887,43.457,40.527,-227.051,0.000
1676160122.501,-190.430,37.109,27.344,-160.156,0.000
1676160122.504,-192.871,42.969,19.531,-205.566,0.000
1676160122.508,-206.055,53.223,48.340,-250.977,0.000
1676160122.512,-204.102,44.922,45.410,-220.215,0.000
1676160122.516,-209.473,21.973,-7.812,-201.172,0.000
1676160122.520,-167.480,33.203,-1.953,-163.086,0.000
1676160122.524,-158.691,56.641,31.250,-194.336,0.000
1676160122.528,-187.012,50.293,20.508,-228.516,0.000
1676160122.532,-155.273,41.016,0.000,-149.902,0.000
1676160122.536,-87.402,48.828,15.625,-75.684,0.000
1676160122.540,-90.820,60.547,34.180,-123.535,0.000
1676160122.544,-144.043,60.059,20.508,-198.730,0.000
1676160122.547,-113.281,49.805,9.766,-125.000,0.000
1676160122.551,-38.574,47.363,13.184,-21.973,0.000
1676160122.555,-20.996,57.617,22.461,-46.875,0.000
1676160122.559,-65.430,55.664,7.812,-130.371,0.000
1676160122.563,-75.684,36.133,-21.973,-103.027,0.000
1676160122.567,3.906,33.203,-13.184,16.113,0.000
1676160122.571,50.293,42.480,5.371,47.852,0.000
1676160122.575,-20.996,30.273,-18.555,-57.129,0.000
1676160122.579,-27.832,23.438,-31.738,-55.176,0.000
1676160122.583,51.758,25.391,-21.484,77.637,0.000
1676160122.587,80.078,19.531,-24.414,104.492,0.000
1676160122.591,41.504,17.090,-35.645,5.859,0.000
1676160122.594,41.504,24.902,-22.949,9.277,0.000
1676160122.598,98.633,25.391,-16.602,128.418,0.000
1676160122.602,146.973,20.996,-24.902,192.871,0.000
1676160122.606,121.094,12.695,-38.574,120.605,0.000
1676160122.610,70.801,9.277,-47.852,35.156,0.000
1676160122.614,139.160,29.785,-16.113,146.484,0.000
1676160122.618,188.965,23.926,-23.926,246.094,0.000
1676160122.622,127.930,2.930,-61.523,156.738,0.000
1676160122.626,105.957,21.484,-38.574,86.914,0.000
1676160122.630,110.840,19.531,-42.480,122.559,0.000
1676160122.633,133.789,0.488,-66.895,191.895,0.000
1676160122.637,167.480,4.395,-62.988,198.730,0.000
1676160122.641,146.973,18.555,-43.457,132.812,0.000
1676160122.645,130.371,20.996,-41.016,124.023,0.000
1676160122.649,175.781,17.090,-51.758,226.562,0.000
1676160122.653,205.078,14.648,-54.688,264.648,0.000
1676160122.657,180.176,24.902,-42.480,185.547,0.000
1676160122.661,166.016,32.227,-24.414,164.062,0.000
1676160122.665,157.227,8.789,-62.500,195.312,0.000
1676160122.669,185.547,2.930,-79.590,234.863,0.000
1676160122.672,205.566,27.344,-45.898,213.379,0.000
1676160122.676,155.273,29.785,-41.016,124.512,0.000
1676160122.680,137.695,13.672,-60.547,146.973,0.000
1676160122.684,196.289,20.020,-53.711,252.930,0.000
1676160122.688,213.867,28.809,-42.480,247.070,0.000
1676160122.692,146.973,26.855,-47.363,129.883,0.000
1676160122.696,133.301,27.832,-45.410,138.184,0.000
1676160122.700,169.922,21.484,-56.152,230.469,0.000
1676160122.704,210.938,31.250,-33.691,271.484,0.000
1676160122.708,166.504,35.156,-19.531,172.363,0.000
1676160122.712,79.102,20.996,-55.664,58.105,0.000
1676160122.715,131.348,21.484,-48.828,166.016,0.000
1676160122.719,189.941,27.344,-32.227,245.117,0.000
1676160122.723,143.555,32.715,-33.203,139.160,0.000
1676160122.727,82.520,32.715,-39.551,41.992,0.000
1676160122.731,118.652,34.668,-34.180,120.605,0.000
1676160122.735,178.223,39.551,-32.227,215.820,0.000
1676160122.739,161.133,49.805,-24.902,166.992,0.000
1676160122.743,108.887,51.270,-12.695,77.637,0.000
1676160122.747,112.305,36.133,-19.531,102.539,0.000
1676160122.751,174.316,38.086,-14.160,226.074,0.000
1676160122.755,156.738,33.203,-28.320,201.172,0.000
1676160122.758,83.984,25.879,-37.109,62.012,0.000
1676160122.762,94.238,39.551,-17.090,87.402,0.000
1676160122.766,145.996,37.109,-19.531,193.359,0.000
1676160122.770,155.762,33.203,-23.438,201.172,0.000
1676160122.774,109.375,41.016,-16.602,94.727,0.000
1676160122.778,84.961,42.480,-11.719,50.293,0.000
1676160122.782,127.441,37.598,-10.254,153.809,0.000
1676160122.786,135.254,25.391,-31.738,175.781,0.000
1676160122.790,99.609,30.273,-25.879,86.914,0.000
1676160122.794,84.961,48.828,6.836,52.246,0.000
1676160122.797,84.473,39.551,-15.137,91.309,0.000
1676160122.801,81.543,17.090,-54.688,117.676,0.000
1676160122.805,99.609,34.180,-27.344,105.469,0.000
1676160122.809,66.895,48.340,-11.230,23.926,0.000
1676160122.813,54.199,39.062,-22.461,25.391,0.000
1676160122.817,99.121,30.273,-31.738,119.141,0.000
1676160122.821,119.141,39.551,-20.508,137.695,0.000
1676160122.825,66.406,47.363,-12.207,39.551,0.000
1676160122.829,30.273,44.922,-25.879,5.859,0.000
1676160122.833,85.938,45.410,-24.414,118.652,0.000
1676160122.837,142.090,52.246,-1.465,174.316,0.000
1676160122.840,117.676,58.105,8.789,96.680,0.000
1676160122.844,28.320,41.504,-28.320,3.418,0.000
1676160122.848,41.992,33.203,-41.992,51.270,0.000
1676160122.852,124.512,45.898,-19.043,151.367,0.000
1676160122.856,98.633,47.363,-17.578,94.727,0.000
1676160122.860,34.668,44.922,-22.949,-3.418,0.000
1676160122.864,52.246,46.875,-29.297,47.852,0.000
1676160122.868,126.465,49.805,-14.160,166.992,0.000
1676160122.872,117.188,44.922,-6.348,135.254,0.000
1676160122.876,54.199,46.875,-9.277,19.043,0.000
1676160122.879,47.852,43.945,-14.160,20.020,0.000
1676160122.883,129.395,44.434,-1.953,156.738,0.000
1676160122.887,145.508,46.875,1.465,166.504,0.000
1676160122.891,45.898,44.922,-22.949,11.230,0.000
1676160122.895,23.926,41.992,-22.461,-8.789,0.000
1676160122.899,104.980,43.457,-9.277,125.977,0.000
1676160122.903,119.141,46.387,-14.648,151.855,0.000
1676160122.907,60.547,50.293,-15.137,44.922,0.000
1676160122.911,41.016,51.270,-0.977,14.160,0.000
1676160122.915,48.828,32.715,-23.926,75.195,0.000
1676160122.919,83.008,23.438,-34.180,138.672,0.000
1676160122.922,66.895,27.832,-18.555,84.961,0.000
1676160122.926,19.043,34.180,-10.254,2.441,0.000
1676160122.930,35.156,32.227,-5.371,47.852,0.000
1676160122.934,68.359,26.855,-19.043,124.512,0.000
1676160122.938,48.828,24.414,-29.297,85.938,0.000
1676160122.942,24.902,35.156,-2.930,0.977,0.000
1676160122.946,26.855,36.133,3.418,12.207,0.000
1676160122.950,26.367,17.578,-37.109,63.965,0.000
1676160122.954,36.621,15.625,-45.410,63.965,0.000
1676160122.958,30.762,31.738,-14.160,9.277,0.000
1676160122.962,10.742,36.621,-7.812,-23.438,0.000
1676160122.965,33.691,23.438,-26.367,44.922,0.000
1676160122.969,68.848,23.926,-23.926,103.516,0.000
1676160122.973,39.551,32.227,-9.766,41.992,0.000
1676160122.977,-11.719,34.668,-11.230,-36.621,0.000
1676160122.981,-3.418,30.273,-23.926,11.230,0.000
1676160122.985,27.344,23.438,-35.645,78.613,0.000
1676160122.989,70.312,45.410,6.348,85.938,0.000
1676160122.993,29.297,51.758,18.555,5.859,0.000
1676160122.997,-37.598,20.508,-36.621,-46.875,0.000
1676160123.001,35.645,27.832,-23.438,66.895,0.000
1676160123.005,66.406,49.805,-2.930,80.566,0.000
1676160123.008,-3.906,52.246,-14.160,-39.551,0.000
1676160123.012,-20.020,53.711,-12.695,-51.758,0.000
1676160123.016,34.180,51.758,0.488,48.828,0.000
1676160123.020,56.152,58.105,2.930,72.266,0.000
1676160123.024,-2.441,66.895,2.441,-34.668,0.000
1676160123.028,-70.801,56.152,0.977,-117.188,0.000
1676160123.032,-47.852,57.617,-2.930,-47.363,0.000
1676160123.036,10.742,75.195,24.902,50.781,0.000
1676160123.040,-64.941,69.336,10.254,-68.359,0.000
1676160123.044,-161.133,57.129,-0.488,-211.426,0.000
1676160123.047,-149.414,47.852,17.578,-157.227,0.000
1676160123.051,-129.883,45.898,21.973,-97.168,0.000
1676160123.055,-185.547,52.246,31.738,-179.199,0.000
1676160123.059,-266.113,52.734,47.852,-304.199,0.000
1676160123.063,-281.250,45.410,61.035,-293.945,0.000
1676160123.067,-249.023,39.551,54.688,-212.891,0.000
1676160123.071,-245.117,48.340,51.270,-229.492,0.000
1676160123.075,-300.781,53.223,47.852,-339.355,0.000
1676160123.079,-300.293,54.199,53.223,-333.496,0.000
1676160123.083,-250.488,43.945,55.664,-224.121,0.000
1676160123.087,-263.672,31.250,24.902,-230.957,0.000
1676160123.090,-268.555,52.734,40.527,-283.691,0.000
1676160123.094,-275.391,52.734,47.852,-319.824,0.000
1676160123.098,-235.840,43.457,24.902,-247.070,0.000
1676160123.102,-172.363,43.945,20.508,-157.227,0.000
1676160123.106,-164.062,52.734,36.133,-187.500,0.000
1676160123.110,-199.219,58.105,36.133,-263.184,0.000
1676160123.114,-179.688,53.711,25.879,-210.938,0.000
1676160123.118,-108.887,60.059,29.297,-88.379,0.000
1676160123.122,-93.750,61.523,25.879,-95.703,0.000
1676160123.126,-112.793,66.406,31.250,-155.762,0.000
1676160123.129,-139.160,48.828,1.465,-164.551,0.000
1676160123.133,-82.520,41.992,-19.043,-70.801,0.000
1676160123.137,-23.926,52.246,-0.977,-20.020,0.000
1676160123.141,-66.406,42.480,-4.883,-109.375,0.000
1676160123.145,-85.449,39.062,-25.879,-136.719,0.000
1676160123.149,-18.555,38.086,-36.621,-28.809,0.000
1676160123.153,55.176,31.250,-20.508,66.895,0.000
1676160123.157,49.805,33.203,-12.695,20.508,0.000
1676160123.161,-9.277,26.855,-36.133,-66.406,0.000
1676160123.165,20.020,13.672,-43.945,7.324,0.000
1676160123.169,125.488,25.391,-20.996,158.203,0.000
1676160123.172,108.398,22.461,-21.484,118.652,0.000
1676160123.176,1.465,-5.859,-62.500,-37.598,0.000
1676160123.180,40.039,-0.488,-62.500,20.996,0.000
1676160123.184,130.859,10.254,-42.480,164.551,0.000
1676160123.188,140.137,14.648,-34.668,170.410,0.000
1676160123.192,78.613,17.578,-47.363,61.523,0.000
1676160123.196,78.125,17.578,-59.082,56.641,0.000
1676160123.200,139.648,7.324,-63.965,167.969,0.000
1676160123.204,154.297,1.953,-60.059,180.664,0.000
1676160123.208,120.117,7.324,-46.875,96.191,0.000
1676160123.211,90.332,0.000,-46.387,73.242,0.000
1676160123.215,152.832,-1.465,-41.504,190.430,0.000
1676160123.219,163.086,-6.348,-62.988,219.727,0.000
1676160123.223,110.352,-8.301,-69.336,121.582,0.000
1676160123.227,117.676,6.348,-45.898,83.008,0.000
1676160123.231,145.508,-0.488,-57.617,139.160,0.000
1676160123.235,179.199,-10.254,-72.754,226.074,0.000
1676160123.239,173.340,-0.977,-63.477,201.172,0.000
1676160123.243,141.602,14.160,-43.457,123.535,0.000
1676160123.247,144.531,14.160,-45.410,148.438,0.000
1676160123.251,177.246,3.418,-57.129,227.539,0.000
1676160123.254,184.570,8.789,-52.734,225.586,0.000
1676160123.258,160.156,26.367,-32.227,147.461,0.000
1676160123.262,129.395,20.996,-38.086,126.953,0.000
1676160123.266,110.352,-10.742,-85.449,166.504,0.000
1676160123.270,161.133,-7.812,-72.754,206.543,0.000
1676160123.274,152.344,11.230,-44.922,134.766,0.000
1676160123.278,83.984,2.930,-58.105,54.688,0.000
1676160123.282,104.980,-4.883,-70.312,122.070,0.000
1676160123.286,162.109,0.977,-56.641,214.355,0.000
1676160123.290,145.508,8.301,-48.828,152.832,0.000
1676160123.294,89.355,11.719,-57.617,49.316,0.000
1676160123.297,97.656,8.789,-56.641,109.863,0.000
1676160123.301,151.367,9.277,-54.688,206.543,0.000
1676160123.305,153.809,18.555,-47.852,179.199,0.000
1676160123.309,90.820,24.902,-41.016,70.801,0.000
1676160123.313,56.152,13.672,-67.871,44.434,0.000
1676160123.317,116.211,11.719,-65.430,157.715,0.000
1676160123.321,155.273,20.996,-36.133,205.566,0.000
1676160123.325,68.359,9.766,-58.594,54.199,0.000
1676160123.329,25.391,7.812,-72.266,-6.348,0.000
1676160123.333,104.004,20.020,-48.828,133.789,0.000
1676160123.337,145.996,19.043,-47.363,186.035,0.000
1676160123.341,83.984,17.578,-60.059,75.195,0.000
1676160123.344,43.457,21.484,-47.852,17.578,0.000
1676160123.348,79.102,19.043,-44.434,96.191,0.000
1676160123.352,120.605,20.020,-49.316,170.410,0.000
1676160123.356,88.379,15.625,-51.758,101.074,0.000
1676160123.360,33.691,14.648,-48.828,-0.977,0.000
1676160123.364,80.566,29.297,-29.297,74.219,0.000
1676160123.368,111.816,15.625,-43.457,166.992,0.000
1676160123.372,53.223,-2.930,-75.684,77.637,0.000
1676160123.376,22.461,13.184,-55.664,-18.555,0.000
1676160123.380,15.625,11.230,-57.129,-1.465,0.000
1676160123.384,48.340,8.301,-60.059,94.727,0.000
1676160123.387,74.219,13.184,-52.734,112.793,0.000
1676160123.391,42.480,18.066,-38.086,25.879,0.000
1676160123.395,18.066,25.391,-27.344,-8.789,0.000
1676160123.399,57.129,18.066,-37.598,75.684,0.000
1676160123.403,85.938,15.137,-41.016,136.230,0.000
1676160123.407,57.617,20.996,-32.227,62.012,0.000
1676160123.411,38.086,25.391,-8.301,12.207,0.000
1676160123.415,20.508,7.812,-37.598,45.898,0.000
1676160123.419,41.504,-2.441,-69.336,90.820,0.000
1676160123.422,54.688,11.719,-45.410,64.941,0.000
1676160123.426,7.324,17.090,-30.273,-28.320,0.000
1676160123.430,-7.812,10.254,-42.480,-12.207,0.000
1676160123.434,46.875,19.043,-42.969,81.055,0.000
1676160123.438,69.824,27.832,-20.508,89.844,0.000
1676160123.442,11.719,34.668,-18.066,-15.137,0.000
1676160123.446,-20.996,36.133,-24.902,-49.316,0.000
1676160123.450,-4.395,20.020,-30.273,30.273,0.000
1676160123.454,32.227,36.621,-2.930,75.195,0.000
1676160123.458,-33.203,55.176,4.883,-44.434,0.000
1676160123.462,-145.996,34.668,-31.250,-178.223,0.000
1676160123.465,-110.352,31.250,-12.695,-101.074,0.000
1676160123.469,-71.777,42.969,20.996,-32.227,0.000
1676160123.473,-152.344,44.922,19.531,-147.461,0.000
1676160123.477,-257.812,38.574,5.859,-287.109,0.000
1676160123.481,-247.070,37.109,20.996,-247.070,0.000
1676160123.485,-213.867,34.668,27.832,-173.340,0.000
1676160123.489,-242.676,25.391,29.297,-227.539,0.000
1676160123.493,-283.691,31.250,36.621,-321.777,0.000
1676160123.497,-275.879,29.785,26.855,-313.965,0.000
1676160123.501,-198.730,34.668,32.227,-183.594,0.000
1676160123.505,-206.543,42.969,18.555,-192.871,0.000
1676160123.508,-259.766,43.945,15.137,-312.012,0.000
1676160123.512,-238.770,41.016,37.598,-287.109,0.000
1676160123.516,-187.500,31.738,28.809,-178.223,0.000
1676160123.520,-164.551,32.227,18.555,-148.438,0.000
1676160123.524,-183.105,43.945,23.926,-214.844,0.000
1676160123.528,-177.246,54.199,33.691,-228.027,0.000
1676160123.532,-138.672,46.387,21.484,-151.367,0.000
1676160123.536,-100.586,39.551,8.301,-90.332,0.000
1676160123.540,-102.539,50.781,17.578,-122.070,0.000
1676160123.544,-115.723,57.129,20.996,-173.828,0.000
1676160123.547,-93.262,41.016,2.441,-112.305,0.000
1676160123.551,-73.242,18.555,-40.039,-56.641,0.000
1676160123.555,-40.039,23.438,-34.668,-46.387,0.000
1676160123.559,-62.500,27.344,-15.625,-104.980,0.000
1676160123.563,-64.941,24.414,-24.902,-91.797,0.000
1676160123.567,0.977,18.555,-28.320,25.391,0.000
1676160123.571,56.152,20.996,-14.160,66.895,0.000
1676160123.575,27.832,23.438,-14.648,-10.742,0.000
1676160123.579,-1.465,9.277,-34.180,-39.551,0.000
1676160123.583,65.918,-4.395,-38.086,73.242,0.000
1676160123.587,119.629,1.953,-31.738,142.578,0.000
1676160123.590,105.469,10.254,-27.832,98.145,0.000
1676160123.594,54.199,-5.859,-44.434,20.996,0.000
1676160123.598,97.656,-7.324,-55.176,99.121,0.000
1676160123.602,179.199,4.395,-53.223,210.938,0.000
1676160123.606,164.062,7.324,-29.785,160.645,0.000
1676160123.610,100.586,7.812,-20.020,66.895,0.000
1676160123.614,117.676,6.348,-31.250,106.934,0.000
1676160123.618,202.148,12.207,-24.902,234.375,0.000
1676160123.622,216.309,26.367,-28.320,229.492,0.000
1676160123.626,164.062,23.926,-36.621,125.488,0.000
1676160123.629,142.090,10.254,-44.922,115.234,0.000
1676160123.633,221.191,21.973,-31.250,235.840,0.000
1676160123.637,246.094,29.297,-25.391,274.902,0.000
1676160123.641,142.578,9.766,-55.176,144.531,0.000
1676160123.645,110.840,4.883,-64.453,91.309,0.000
1676160123.649,181.641,12.207,-55.664,204.590,0.000
1676160123.653,212.891,8.789,-57.617,253.418,0.000
1676160123.657,172.852,12.695,-56.152,169.434,0.000
1676160123.661,137.695,18.066,-45.410,111.328,0.000
1676160123.665,147.461,9.766,-49.316,168.457,0.000
1676160123.669,174.316,3.906,-62.988,223.633,0.000
1676160123.672,167.480,13.672,-57.129,173.340,0.000
1676160123.676,127.441,22.461,-41.504,95.703,0.000
1676160123.680,136.230,19.531,-40.527,141.113,0.000
1676160123.684,172.852,16.113,-51.270,225.586,0.000
1676160123.688,161.621,17.578,-57.617,190.918,0.000
1676160123.692,128.418,30.273,-39.062,114.258,0.000
1676160123.696,120.605,27.832,-30.273,129.395,0.000
1676160123.700,132.812,10.254,-64.941,188.477,0.000
1676160123.704,160.156,22.949,-66.406,210.449,0.000
1676160123.708,140.137,36.621,-43.945,145.996,0.000
1676160123.712,98.633,31.250,-46.387,106.445,0.000
1676160123.715,133.301,30.762,-52.246,175.293,0.000
1676160123.719,191.895,37.109,-36.133,239.258,0.000
1676160123.723,165.527,39.551,-21.973,186.523,0.000
1676160123.727,109.863,33.691,-23.926,105.957,0.000
1676160123.731,111.816,24.902,-39.062,130.859,0.000
1676160123.735,130.371,17.578,-57.129,188.477,0.000
1676160123.739,168.457,37.598,-23.926,198.730,0.000
1676160123.743,121.582,44.922,-24.902,107.422,0.000
1676160123.747,54.688,24.414,-69.824,51.270,0.000
1676160123.751,122.070,29.297,-51.270,165.527,0.000
1676160123.755,133.789,27.344,-46.387,178.223,0.000
1676160123.758,65.430,26.367,-49.805,62.012,0.000
1676160123.762,46.387,23.438,-47.363,30.762,0.000
1676160123.766,104.492,16.113,-48.340,127.930,0.000
1676160123.770,140.625,25.391,-42.480,184.570,0.000
1676160123.774,99.121,32.715,-36.133,103.516,0.000
1676160123.778,45.410,27.832,-40.039,23.926,0.000
1676160123.782,76.172,22.949,-49.316,94.238,0.000
1676160123.786,150.879,31.738,-25.879,211.426,0.000
1676160123.790,90.820,23.926,-41.992,102.051,0.000
1676160123.794,4.395,16.113,-58.594,-30.273,0.000
1676160123.797,42.480,21.484,-35.156,56.641,0.000
1676160123.801,97.168,22.461,-34.668,151.367,0.000
1676160123.805,75.684,20.508,-37.109,105.957,0.000
1676160123.809,40.039,29.297,-16.602,22.461,0.000
1676160123.813,41.992,38.574,-19.043,34.180,0.000
1676160123.817,66.406,33.203,-39.062,120.117,0.000
1676160123.821,88.379,35.156,-27.344,139.160,0.000
1676160123.825,47.852,40.527,-18.066,32.227,0.000
1676160123.829,27.832,42.969,-9.766,17.090,0.000
1676160123.833,60.547,38.086,-19.531,110.352,0.000
1676160123.837,51.758,26.367,-48.340,108.887,0.000
1676160123.840,41.992,34.668,-29.297,44.434,0.000
1676160123.844,9.766,30.273,-19.531,-9.277,0.000
1676160123.848,18.555,17.578,-41.504,34.180,0.000
1676160123.852,64.941,21.484,-50.293,101.562,0.000
1676160123.856,70.801,34.180,-29.297,81.055,0.000
1676160123.860,27.344,43.457,-19.531,-4.883,0.000
1676160123.864,15.625,37.109,-28.320,-4.395,0.000
1676160123.868,62.012,30.762,-17.578,112.305,0.000
1676160123.872,81.543,46.387,-1.465,119.629,0.000
1676160123.876,25.391,50.293,6.348,11.719,0.000
1676160123.879,-40.039,40.039,-21.973,-41.504,0.000
1676160123.883,-13.672,39.551,-38.574,23.926,0.000
1676160123.887,28.320,51.270,-2.441,63.477,0.000
1676160123.891,-42.480,60.059,8.789,-63.477,0.000
1676160123.895,-123.047,58.594,6.348,-148.438,0.000
1676160123.899,-116.211,49.316,11.230,-84.473,0.000
1676160123.903,-83.008,51.758,26.855,-32.715,0.000
1676160123.907,-139.648,57.129,42.969,-135.254,0.000
1676160123.911,-260.742,47.852,27.344,-297.852,0.000
1676160123.915,-277.344,39.551,29.785,-279.297,0.000
1676160123.919,-228.516,43.457,56.152,-174.316,0.000
1676160123.922,-256.348,45.410,49.316,-235.840,0.000
1676160123.926,-367.676,33.203,6.836,-411.621,0.000
1676160123.930,-352.051,42.969,9.766,-376.953,0.000
1676160123.934,-268.066,50.781,18.066,-250.488,0.000
1676160123.938,-249.023,55.176,12.207,-248.047,0.000
1676160123.942,-293.457,58.105,0.977,-349.609,0.000
1676160123.946,-298.828,53.223,3.906,-352.539,0.000
1676160123.950,-233.887,48.828,8.789,-230.957,0.000
1676160123.954,-205.566,45.898,-12.207,-203.613,0.000
1676160123.958,-226.074,56.152,-7.324,-275.391,0.000
1676160123.961,-232.910,61.523,2.441,-295.410,0.000
1676160123.965,-166.992,61.035,-3.418,-178.223,0.000
1676160123.969,-133.301,48.340,-25.391,-124.023,0.000
1676160123.973,-161.133,45.898,-40.527,-207.031,0.000
1676160123.977,-157.715,60.059,-22.949,-242.676,0.000
1676160123.981,-130.859,50.293,-29.297,-176.758,0.000
1676160123.985,-83.496,32.715,-50.781,-85.938,0.000
1676160123.989,-74.219,30.273,-42.480,-93.262,0.000
1676160123.993,-86.426,34.180,-14.160,-128.418,0.000
1676160123.997,-64.941,23.926,-22.461,-84.473,0.000
1676160124.001,-7.812,5.371,-42.480,12.207,0.000
1676160124.004,20.996,-5.371,-42.480,33.203,0.000
1676160124.008,14.648,7.812,-23.438,-16.113,0.000
1676160124.012,8.301,5.859,-29.785,-24.902,0.000
1676160124.016,19.531,-27.344,-69.824,18.555,0.000
1676160124.020,68.359,-27.832,-56.641,88.379,0.000
1676160124.024,60.059,-19.531,-35.645,49.805,0.000
1676160124.028,35.645,-18.066,-39.062,1.953,0.000
1676160124.032,72.266,-16.602,-42.480,88.379,0.000
1676160124.036,127.930,-13.184,-36.621,178.711,0.000
1676160124.040,115.723,-6.836,-40.527,128.906,0.000
1676160124.044,59.570,-8.301,-54.688,35.645,0.000
1676160124.047,76.172,-11.719,-58.105,81.543,0.000
1676160124.051,145.508,-11.230,-44.434,199.707,0.000
1676160124.055,166.992,-3.418,-29.785,198.242,0.000
1676160124.059,105.469,-1.953,-37.598,79.590,0.000
1676160124.063,84.473,-8.301,-55.176,67.871,0.000
1676160124.067,152.832,2.441,-43.457,195.801,0.000
1676160124.071,185.059,11.719,-36.621,234.375,0.000
1676160124.075,123.047,6.836,-61.523,92.285,0.000
1676160124.079,83.984,5.371,-60.059,48.828,0.000
1676160124.083,135.742,5.371,-44.434,185.547,0.000
1676160124.087,182.617,10.254,-45.410,240.234,0.000
1676160124.090,149.414,16.113,-44.922,157.715,0.000
1676160124.094,118.164,22.949,-36.621,106.934,0.000
1676160124.098,149.902,20.508,-38.086,180.176,0.000
1676160124.102,193.848,18.066,-36.621,255.859,0.000
1676160124.106,158.203,18.066,-45.898,165.527,0.000
1676160124.110,92.285,12.695,-57.617,31.738,0.000
1676160124.114,152.344,25.879,-24.414,121.094,0.000
1676160124.118,199.707,24.902,-29.785,216.797,0.000
1676160124.122,147.949,11.230,-64.453,134.277,0.000
1676160124.125,120.605,29.297,-36.621,68.359,0.000
1676160124.129,104.980,29.785,-32.715,74.219,0.000
1676160124.133,127.930,16.113,-53.223,140.625,0.000
1676160124.137,134.766,18.066,-52.246,156.250,0.000
1676160124.141,105.469,32.227,-31.738,82.031,0.000
1676160124.145,89.355,32.715,-29.297,50.293,0.000
1676160124.149,118.652,24.414,-45.410,122.070,0.000
1676160124.153,145.996,22.461,-54.199,166.504,0.000
1676160124.157,120.605,25.391,-46.387,102.539,0.000
1676160124.161,113.281,44.434,-18.555,80.566,0.000
1676160124.165,104.980,32.227,-41.504,123.047,0.000
1676160124.168,129.395,18.555,-56.641,172.852,0.000
1676160124.172,151.855,34.668,-27.832,165.039,0.000
1676160124.176,102.539,33.691,-26.367,83.984,0.000
1676160124.180,89.355,22.461,-41.504,98.633,0.000
1676160124.184,149.902,27.344,-38.574,201.172,0.000
1676160124.188,179.688,38.086,-24.414,211.914,0.000
1676160124.192,117.188,36.621,-24.902,108.887,0.000
1676160124.196,84.473,34.180,-26.855,82.520,0.000
1676160124.200,119.629,31.738,-33.691,151.855,0.000
1676160124.204,165.039,44.434,-20.020,202.637,0.000
1676160124.208,122.559,50.781,-18.555,125.488,0.000
1676160124.211,29.785,33.203,-52.246,-2.441,0.000
1676160124.215,74.219,36.621,-45.410,72.754,0.000
1676160124.219,135.254,41.992,-31.250,160.156,0.000
1676160124.223,95.703,35.156,-30.273,87.402,0.000
1676160124.227,40.039,32.715,-30.762,-2.441,0.000
1676160124.231,70.801,34.180,-25.879,61.523,0.000
1676160124.235,112.305,28.809,-31.250,149.414,0.000
1676160124.239,87.402,28.320,-35.645,97.656,0.000
1676160124.243,43.457,34.180,-26.855,12.207,0.000
1676160124.247,36.133,26.367,-32.715,32.227,0.000
1676160124.251,92.285,22.461,-25.879,144.531,0.000
1676160124.254,83.496,20.020,-35.156,126.465,0.000
1676160124.258,21.973,19.531,-40.527,8.789,0.000
1676160124.262,20.996,21.973,-29.297,7.324,0.000
1676160124.266,45.898,20.996,-36.621,86.914,0.000
1676160124.270,56.641,26.855,-40.039,108.398,0.000
1676160124.274,20.508,39.062,-35.645,23.438,0.000
1676160124.278,-5.859,41.992,-22.949,-31.738,0.000
1676160124.282,5.371,27.344,-18.555,20.996,0.000
1676160124.286,17.090,22.461,-30.273,59.082,0.000
1676160124.290,-7.812,38.086,-29.297,-6.348,0.000
1676160124.293,-46.875,54.199,-5.371,-76.172,0.000
1676160124.297,-72.266,46.875,-1.465,-58.594,0.000
1676160124.301,-107.910,31.738,-26.367,-53.223,0.000
1676160124.305,-109.375,48.340,5.371,-84.473,0.000
1676160124.309,-170.410,51.270,38.086,-186.523,0.000
1676160124.313,-217.285,39.551,35.645,-220.215,0.000
1676160124.317,-204.590,36.133,28.320,-163.574,0.000
1676160124.321,-211.426,41.992,26.367,-183.105,0.000
1676160124.325,-263.184,48.340,26.367,-284.668,0.000
1676160124.329,-296.387,47.363,20.020,-323.730,0.000
1676160124.333,-251.465,44.434,20.996,-231.445,0.000
1676160124.336,-200.684,41.992,22.949,-159.180,0.000
1676160124.340,-192.871,54.199,36.133,-198.242,0.000
1676160124.344,-254.883,53.223,9.277,-296.875,0.000
1676160124.348,-257.324,36.621,-16.602,-252.441,0.000
1676160124.352,-157.715,46.875,1.953,-113.281,0.000
1676160124.356,-143.555,43.457,3.906,-147.949,0.000
1676160124.360,-200.195,31.738,-9.277,-242.188,0.000
1676160124.364,-181.152,35.645,-24.902,-191.895,0.000
1676160124.368,-87.891,46.387,-18.066,-35.645,0.000
1676160124.372,-59.570,38.574,-15.137,8.301,0.000
1676160124.376,-113.281,18.066,-31.250,-99.609,0.000
1676160124.379,-120.605,6.836,-48.340,-107.422,0.000
1676160124.383,-22.461,12.207,-42.480,50.293,0.000
1676160124.387,31.250,2.930,-27.832,97.656,0.000
1676160124.391,-30.762,-28.320,-36.133,-45.898,0.000
1676160124.395,-39.062,-35.156,-29.297,-84.473,0.000
1676160124.399,38.086,-24.902,-23.438,42.969,0.000
1676160124.403,86.914,-17.578,-28.809,130.859,0.000
1676160124.407,68.848,-19.531,-43.945,78.125,0.000
1676160124.411,37.598,-22.949,-48.828,6.348,0.000
1676160124.415,59.082,-23.438,-42.480,63.965,0.000
1676160124.419,110.352,-17.090,-42.480,165.527,0.000
1676160124.422,110.840,-6.348,-37.598,143.555,0.000
1676160124.426,87.402,3.906,-20.508,68.848,0.000
1676160124.430,87.891,0.977,-30.273,92.285,0.000
1676160124.434,128.906,-8.789,-48.828,187.012,0.000
1676160124.438,144.043,-12.207,-60.059,196.289,0.000
1676160124.442,109.863,-3.906,-53.223,115.723,0.000
1676160124.446,119.629,1.953,-27.832,129.883,0.000
1676160124.450,130.859,-20.996,-54.688,185.547,0.000
1676160124.454,141.602,-25.879,-74.219,205.078,0.000
1676160124.458,136.719,-9.277,-51.270,154.297,0.000
1676160124.462,99.121,-14.160,-53.711,76.172,0.000
1676160124.465,108.398,-27.832,-75.684,132.812,0.000
1676160124.469,170.410,-22.949,-63.965,241.211,0.000
1676160124.473,173.340,-15.137,-46.875,200.684,0.000
1676160124.477,110.352,-16.602,-51.758,84.961,0.000
1676160124.481,101.074,-20.020,-69.336,112.305,0.000
1676160124.485,151.855,-18.555,-74.219,219.727,0.000
1676160124.489,182.129,-10.254,-48.828,220.703,0.000
1676160124.493,116.211,-14.160,-50.293,109.863,0.000
1676160124.497,57.129,-29.785,-83.008,56.152,0.000
1676160124.501,123.535,-22.949,-72.754,172.363,0.000
1676160124.505,147.949,-16.113,-61.523,207.031,0.000
1676160124.509,89.355,-13.184,-64.453,91.797,0.000
1676160124.512,62.988,-14.160,-70.801,43.457,0.000
1676160124.516,113.281,-16.602,-67.383,147.461,0.000
1676160124.520,140.625,-16.113,-62.012,206.543,0.000
1676160124.524,103.516,-12.695,-62.500,125.977,0.000
1676160124.528,43.945,-20.996,-80.566,27.832,0.000
1676160124.532,53.223,-33.203,-93.750,68.848,0.000
1676160124.536,125.488,-23.926,-76.172,191.406,0.000
